SpectraSuite Data File
++++++++++++++++++++++++++++++++++++
Date: Mon Oct 22 15:14:12 EDT 2012
User: group
Dark Spectrum Present: No
Reference Spectrum Present: No
Number of Sampled Component Spectra: 1
Spectrometers: USB2E7196
Integration Time (usec): 91000 (USB2E7196)
Spectra Averaged: 30 (USB2E7196)
Boxcar Smoothing: 10 (USB2E7196)
Correct for Electrical Dark: No (USB2E7196)
Strobe/Lamp Enabled: No (USB2E7196)
Correct for Detector Non-linearity: No (USB2E7196)
Correct for Stray Light: No (USB2E7196)
Number of Pixels in Processed Spectrum: 2048
>>>>>Begin Processed Spectral Data<<<<<
339.09	0.00
339.48	225.37
339.86	226.63
340.24	227.00
340.63	229.30
341.01	233.80
341.39	230.83
341.78	232.33
342.16	234.57
342.54	233.33
342.93	222.54
343.31	233.77
343.69	234.21
344.07	234.62
344.46	235.04
344.84	235.35
345.22	235.50
345.60	235.76
345.99	235.95
346.37	236.06
346.75	236.20
347.13	236.22
347.52	236.30
347.90	236.40
348.28	236.37
348.66	236.46
349.05	236.39
349.43	236.43
349.81	236.42
350.19	236.43
350.57	236.47
350.96	236.55
351.34	236.64
351.72	236.72
352.10	236.82
352.48	236.90
352.87	236.94
353.25	236.94
353.63	237.01
354.01	237.03
354.39	237.11
354.77	237.15
355.15	237.33
355.54	237.37
355.92	237.36
356.30	237.52
356.68	237.71
357.06	237.87
357.44	237.87
357.82	237.93
358.20	238.00
358.58	238.10
358.97	238.16
359.35	238.25
359.73	238.36
360.11	238.41
360.49	238.50
360.87	238.57
361.25	238.66
361.63	238.80
362.01	238.88
362.39	238.94
362.77	239.04
363.15	239.05
363.53	239.10
363.91	239.13
364.29	239.13
364.67	238.92
365.05	238.92
365.43	239.02
365.81	239.04
366.19	239.15
366.57	239.20
366.95	239.19
367.33	239.19
367.71	239.21
368.09	239.33
368.47	239.31
368.85	239.35
369.23	239.41
369.61	239.31
369.99	239.35
370.37	239.33
370.75	239.41
371.13	239.37
371.51	239.31
371.89	239.33
372.27	239.27
372.65	239.31
373.03	239.27
373.41	239.18
373.78	239.19
374.16	239.02
374.54	238.91
374.92	238.82
375.30	238.72
375.68	238.62
376.06	238.50
376.44	238.39
376.82	238.40
377.19	238.36
377.57	238.30
377.95	238.21
378.33	238.09
378.71	237.87
379.09	237.83
379.47	237.80
379.84	237.70
380.22	237.64
380.60	237.57
380.98	237.48
381.36	237.47
381.73	237.41
382.11	237.41
382.49	237.39
382.87	237.36
383.25	237.33
383.62	237.58
384.00	237.52
384.38	237.50
384.76	237.42
385.13	237.37
385.51	237.30
385.89	237.24
386.27	237.26
386.64	237.27
387.02	237.21
387.40	237.15
387.78	237.14
388.15	237.13
388.53	237.02
388.91	236.98
389.29	236.93
389.66	236.87
390.04	236.84
390.42	236.84
390.79	236.80
391.17	236.79
391.55	236.52
391.92	236.48
392.30	236.47
392.68	236.37
393.05	236.35
393.43	236.31
393.81	236.30
394.18	236.23
394.56	236.24
394.94	236.29
395.31	236.31
395.69	236.38
396.06	236.41
396.44	236.51
396.82	236.58
397.19	236.71
397.57	236.74
397.95	236.73
398.32	236.69
398.70	236.80
399.07	236.81
399.45	236.83
399.82	236.92
400.20	237.03
400.58	237.14
400.95	237.21
401.33	237.38
401.70	237.65
402.08	237.76
402.45	237.86
402.83	238.04
403.20	238.17
403.58	238.25
403.95	238.45
404.33	238.64
404.71	238.79
405.08	239.08
405.46	239.32
405.83	239.60
406.21	239.89
406.58	240.21
406.96	240.57
407.33	240.99
407.70	241.34
408.08	241.89
408.45	242.42
408.83	242.91
409.20	243.40
409.58	243.79
409.95	244.42
410.33	245.08
410.70	245.66
411.08	246.36
411.45	247.14
411.82	247.88
412.20	248.81
412.57	249.90
412.95	250.77
413.32	251.90
413.69	253.08
414.07	254.28
414.44	255.56
414.82	256.97
415.19	258.50
415.56	260.20
415.94	261.84
416.31	263.79
416.68	265.64
417.06	267.82
417.43	269.93
417.81	272.36
418.18	274.88
418.55	277.61
418.93	280.50
419.30	283.47
419.67	286.64
420.04	289.85
420.42	293.23
420.79	297.16
421.16	301.05
421.54	305.12
421.91	309.39
422.28	313.84
422.66	318.57
423.03	323.18
423.40	328.01
423.77	333.22
424.15	338.49
424.52	344.06
424.89	350.14
425.26	356.09
425.64	361.70
426.01	367.84
426.38	374.31
426.75	380.78
427.13	387.58
427.50	394.75
427.87	402.45
428.24	410.03
428.61	417.30
428.99	425.33
429.36	434.01
429.73	442.67
430.10	451.22
430.47	460.15
430.85	469.40
431.22	479.16
431.59	489.53
431.96	499.45
432.33	510.49
432.70	521.21
433.08	533.83
433.45	545.88
433.82	557.70
434.19	571.06
434.56	584.13
434.93	596.76
435.30	609.37
435.68	623.13
436.05	636.83
436.42	650.79
436.79	663.43
437.16	677.27
437.53	691.47
437.90	705.80
438.27	719.81
438.64	734.45
439.01	748.10
439.38	760.30
439.75	772.20
440.13	785.63
440.50	798.31
440.87	808.79
441.24	819.50
441.61	831.60
441.98	840.48
442.35	850.87
442.72	861.27
443.09	871.16
443.46	877.42
443.83	881.74
444.20	885.44
444.57	890.90
444.94	893.33
445.31	896.12
445.68	898.52
446.05	899.76
446.42	898.90
446.79	897.63
447.16	896.16
447.53	895.06
447.90	890.00
448.27	884.92
448.64	877.74
449.01	872.54
449.37	863.16
449.74	854.23
450.11	843.31
450.48	831.75
450.85	820.11
451.22	810.03
451.59	800.72
451.96	791.59
452.33	779.35
452.70	768.63
453.07	755.76
453.43	742.57
453.80	729.75
454.17	717.46
454.54	706.00
454.91	693.73
455.28	681.73
455.65	670.83
456.02	659.76
456.38	650.58
456.75	639.04
457.12	629.67
457.49	620.16
457.86	611.27
458.23	603.40
458.59	594.82
458.96	586.12
459.33	578.28
459.70	570.40
460.07	564.19
460.43	556.94
460.80	550.17
461.17	544.17
461.54	538.19
461.91	532.24
462.27	526.18
462.64	521.10
463.01	515.44
463.38	509.94
463.74	504.51
464.11	499.66
464.48	495.51
464.85	490.91
465.21	487.49
465.58	483.83
465.95	479.30
466.32	475.56
466.68	471.83
467.05	468.27
467.42	464.69
467.78	460.84
468.15	457.12
468.52	454.31
468.88	450.96
469.25	447.80
469.62	445.29
469.98	442.63
470.35	440.01
470.72	437.65
471.08	435.18
471.45	433.12
471.82	430.81
472.18	428.28
472.55	426.55
472.92	424.54
473.28	422.73
473.65	421.17
474.02	419.50
474.38	418.14
474.75	416.82
475.11	415.63
475.48	414.65
475.85	413.99
476.21	413.27
476.58	412.61
476.94	412.19
477.31	411.55
477.67	410.97
478.04	410.60
478.41	410.46
478.77	410.40
479.14	410.15
479.50	410.26
479.87	410.66
480.23	410.94
480.60	411.06
480.96	411.35
481.33	411.93
481.69	412.60
482.06	413.06
482.42	413.53
482.79	414.09
483.15	415.06
483.52	416.15
483.88	417.16
484.25	418.28
484.61	419.35
484.98	420.69
485.34	422.20
485.71	423.82
486.07	425.41
486.44	427.04
486.80	428.89
487.17	430.85
487.53	432.85
487.90	435.01
488.26	437.41
488.62	439.94
488.99	442.24
489.35	444.69
489.72	447.51
490.08	450.51
490.44	453.47
490.81	456.53
491.17	459.61
491.54	463.15
491.90	466.68
492.26	470.34
492.63	474.08
492.99	477.73
493.36	481.63
493.72	485.83
494.08	489.98
494.45	494.39
494.81	498.88
495.17	503.47
495.54	508.22
495.90	513.17
496.26	517.93
496.63	523.12
496.99	528.41
497.35	533.82
497.72	539.41
498.08	545.02
498.44	550.66
498.80	556.45
499.17	562.05
499.53	567.89
499.89	573.86
500.26	579.85
500.62	586.03
500.98	592.33
501.34	598.44
501.71	604.77
502.07	611.17
502.43	617.68
502.79	624.24
503.16	630.83
503.52	637.35
503.88	644.04
504.24	650.63
504.60	656.91
504.97	663.39
505.33	669.73
505.69	676.46
506.05	683.12
506.41	689.79
506.78	696.36
507.14	702.90
507.50	709.33
507.86	715.76
508.22	722.18
508.59	728.38
508.95	734.84
509.31	741.17
509.67	747.29
510.03	752.97
510.39	758.73
510.75	764.37
511.12	770.00
511.48	775.54
511.84	780.95
512.20	786.28
512.56	791.55
512.92	796.72
513.28	801.72
513.64	806.27
514.00	810.60
514.37	814.84
514.73	818.96
515.09	822.88
515.45	826.80
515.81	830.40
516.17	833.77
516.53	836.93
516.89	840.14
517.25	843.19
517.61	846.35
517.97	849.19
518.33	851.37
518.69	853.54
519.05	855.64
519.41	857.44
519.77	859.46
520.13	860.95
520.49	862.54
520.85	863.86
521.21	865.17
521.57	866.67
521.93	867.57
522.29	868.41
522.65	869.13
523.01	869.66
523.37	870.12
523.73	870.68
524.09	870.76
524.45	870.62
524.81	870.49
525.17	870.21
525.53	869.79
525.89	869.78
526.25	869.48
526.61	868.87
526.97	868.30
527.33	867.87
527.68	867.70
528.04	867.07
528.40	866.00
528.76	865.31
529.12	864.26
529.48	863.60
529.84	862.55
530.20	861.77
530.56	860.70
530.91	859.88
531.27	859.03
531.63	858.22
531.99	857.27
532.35	856.30
532.71	855.27
533.07	854.38
533.42	853.44
533.78	852.39
534.14	851.47
534.50	850.63
534.86	849.86
535.21	848.46
535.57	847.33
535.93	846.42
536.29	845.54
536.65	844.65
537.00	843.80
537.36	843.22
537.72	842.41
538.08	841.97
538.44	841.11
538.79	840.32
539.15	839.60
539.51	839.23
539.87	838.80
540.22	838.16
540.58	837.81
540.94	837.34
541.29	836.93
541.65	836.48
542.01	836.33
542.37	835.85
542.72	835.74
543.08	835.30
543.44	835.43
543.79	834.91
544.15	834.66
544.51	834.79
544.87	834.55
545.22	834.57
545.58	834.55
545.94	834.61
546.29	834.24
546.65	833.97
547.01	833.67
547.36	833.49
547.72	833.68
548.07	833.70
548.43	833.91
548.79	834.00
549.14	834.32
549.50	834.63
549.86	835.01
550.21	835.34
550.57	836.02
550.92	836.24
551.28	836.92
551.64	837.34
551.99	837.63
552.35	838.12
552.70	838.48
553.06	838.68
553.41	839.12
553.77	840.12
554.13	840.98
554.48	841.92
554.84	842.76
555.19	843.88
555.55	845.10
555.90	845.94
556.26	847.16
556.61	848.14
556.97	848.85
557.32	849.68
557.68	850.63
558.03	851.62
558.39	852.70
558.74	854.00
559.10	855.10
559.45	856.35
559.81	857.87
560.16	859.28
560.52	860.82
560.87	862.48
561.23	864.01
561.58	866.07
561.94	867.70
562.29	869.09
562.64	870.76
563.00	872.21
563.35	873.67
563.71	875.09
564.06	876.43
564.42	877.82
564.77	879.08
565.12	880.44
565.48	882.24
565.83	883.95
566.19	885.77
566.54	887.61
566.89	889.15
567.25	890.55
567.60	892.14
567.96	893.70
568.31	895.10
568.66	896.18
569.02	897.13
569.37	898.00
569.72	899.09
570.08	899.75
570.43	900.50
570.78	901.47
571.14	902.23
571.49	902.93
571.84	904.08
572.20	905.14
572.55	906.30
572.90	906.84
573.26	907.47
573.61	907.57
573.96	907.74
574.31	907.80
574.67	907.96
575.02	907.84
575.37	907.90
575.72	907.92
576.08	908.24
576.43	908.13
576.78	908.08
577.13	908.38
577.49	908.57
577.84	908.79
578.19	909.03
578.54	909.14
578.90	909.52
579.25	909.25
579.60	908.86
579.95	908.05
580.30	907.86
580.66	907.61
581.01	907.51
581.36	907.35
581.71	907.31
582.06	907.28
582.42	907.09
582.77	906.43
583.12	906.10
583.47	905.68
583.82	905.37
584.17	904.71
584.53	904.15
584.88	903.23
585.23	902.42
585.58	901.62
585.93	900.62
586.28	899.65
586.63	898.59
586.98	897.69
587.34	897.11
587.69	895.69
588.04	894.38
588.39	892.85
588.74	891.20
589.09	889.78
589.44	888.17
589.79	886.89
590.14	885.78
590.49	884.11
590.84	882.46
591.19	880.88
591.54	879.65
591.89	877.57
592.25	876.03
592.60	873.77
592.95	871.51
593.30	869.87
593.65	867.91
594.00	866.18
594.35	865.27
594.70	863.28
595.05	861.76
595.40	859.82
595.75	857.88
596.10	856.44
596.45	854.30
596.80	852.27
597.15	850.01
597.50	847.90
597.85	846.03
598.19	844.07
598.54	841.68
598.89	839.38
599.24	837.59
599.59	835.67
599.94	833.95
600.29	832.08
600.64	829.79
600.99	827.65
601.34	825.47
601.69	822.32
602.04	820.09
602.39	817.66
602.74	815.49
603.08	813.32
603.43	810.94
603.78	809.07
604.13	807.11
604.48	805.27
604.83	803.39
605.18	801.38
605.53	799.25
605.87	797.54
606.22	796.19
606.57	794.75
606.92	793.26
607.27	791.86
607.62	790.70
607.96	789.67
608.31	788.44
608.66	787.03
609.01	785.51
609.36	783.83
609.70	781.86
610.05	779.98
610.40	778.01
610.75	775.99
611.10	773.86
611.44	771.18
611.79	768.83
612.14	766.25
612.49	763.42
612.83	760.69
613.18	757.76
613.53	754.43
613.88	750.91
614.22	747.25
614.57	743.36
614.92	739.35
615.27	735.30
615.61	731.50
615.96	727.88
616.31	724.52
616.65	721.20
617.00	718.15
617.35	715.13
617.70	712.16
618.04	709.08
618.39	705.99
618.74	703.40
619.08	700.31
619.43	697.22
619.78	694.25
620.12	691.33
620.47	688.68
620.82	685.83
621.16	683.05
621.51	680.41
621.85	678.00
622.20	675.44
622.55	672.90
622.89	670.47
623.24	668.08
623.59	665.48
623.93	662.79
624.28	660.04
624.62	657.23
624.97	654.48
625.32	651.53
625.66	648.70
626.01	645.96
626.35	643.47
626.70	640.93
627.04	638.74
627.39	636.28
627.73	633.67
628.08	631.06
628.43	628.42
628.77	625.52
629.12	622.76
629.46	620.27
629.81	617.61
630.15	614.72
630.50	611.95
630.84	609.21
631.19	606.64
631.53	604.10
631.88	601.35
632.22	598.75
632.57	596.44
632.91	593.92
633.26	591.20
633.60	588.28
633.95	585.55
634.29	582.51
634.64	579.80
634.98	576.82
635.32	574.10
635.67	571.59
636.01	569.13
636.36	566.51
636.70	563.90
637.05	561.37
637.39	558.91
637.73	556.34
638.08	553.90
638.42	551.37
638.77	549.00
639.11	546.52
639.45	544.05
639.80	541.54
640.14	539.08
640.49	536.75
640.83	534.47
641.17	532.22
641.52	530.09
641.86	527.91
642.20	526.09
642.55	524.07
642.89	521.92
643.23	519.95
643.58	518.12
643.92	516.00
644.26	513.87
644.61	511.81
644.95	509.63
645.29	507.47
645.64	505.43
645.98	503.37
646.32	501.39
646.66	499.17
647.01	497.12
647.35	495.25
647.69	493.24
648.04	491.41
648.38	489.44
648.72	487.38
649.06	485.34
649.41	483.10
649.75	481.05
650.09	479.16
650.43	477.09
650.78	474.81
651.12	472.79
651.46	470.88
651.80	469.14
652.14	467.38
652.49	465.68
652.83	463.72
653.17	461.58
653.51	459.45
653.85	457.60
654.20	455.72
654.54	453.70
654.88	451.82
655.22	449.76
655.56	447.86
655.90	446.08
656.25	444.17
656.59	442.37
656.93	440.46
657.27	438.55
657.61	436.66
657.95	435.03
658.29	433.22
658.64	431.44
658.98	429.43
659.32	427.45
659.66	425.42
660.00	423.57
660.34	421.80
660.68	420.17
661.02	418.34
661.36	416.61
661.70	414.94
662.05	413.23
662.39	411.67
662.73	410.07
663.07	408.44
663.41	406.86
663.75	405.19
664.09	403.63
664.43	402.04
664.77	400.53
665.11	398.85
665.45	397.33
665.79	395.80
666.13	394.19
666.47	392.81
666.81	391.32
667.15	389.81
667.49	388.42
667.83	387.06
668.17	385.70
668.51	384.28
668.85	382.88
669.19	381.52
669.53	380.11
669.87	378.67
670.21	377.23
670.55	375.85
670.89	374.70
671.23	373.40
671.57	372.03
671.91	370.67
672.25	369.47
672.58	368.28
672.92	366.99
673.26	365.89
673.60	364.60
673.94	363.38
674.28	362.31
674.62	361.20
674.96	359.96
675.30	358.73
675.64	357.51
675.97	356.35
676.31	355.12
676.65	353.94
676.99	352.98
677.33	351.83
677.67	350.83
678.01	349.62
678.34	348.67
678.68	347.72
679.02	346.72
679.36	345.68
679.70	344.63
680.04	343.55
680.37	342.40
680.71	341.39
681.05	340.47
681.39	339.40
681.73	338.34
682.06	337.38
682.40	336.54
682.74	335.70
683.08	334.85
683.42	334.03
683.75	333.28
684.09	332.21
684.43	331.33
684.77	330.29
685.10	329.35
685.44	328.28
685.78	327.30
686.12	326.39
686.45	325.45
686.79	324.51
687.13	323.74
687.46	322.94
687.80	322.15
688.14	321.23
688.48	320.45
688.81	319.60
689.15	318.86
689.49	318.00
689.82	317.18
690.16	316.22
690.50	315.35
690.83	314.45
691.17	313.56
691.51	312.71
691.84	311.91
692.18	311.11
692.52	310.34
692.85	309.55
693.19	308.91
693.52	308.21
693.86	307.48
694.20	306.73
694.53	306.01
694.87	305.21
695.21	304.47
695.54	303.79
695.88	302.98
696.21	302.12
696.55	301.39
696.88	300.69
697.22	300.01
697.56	299.45
697.89	298.81
698.23	298.22
698.56	297.70
698.90	297.14
699.23	296.57
699.57	296.01
699.90	295.45
700.24	294.81
700.58	294.16
700.91	293.65
701.25	293.26
701.58	292.81
701.92	292.31
702.25	291.93
702.59	291.36
702.92	290.91
703.26	290.50
703.59	290.13
703.93	289.85
704.26	289.43
704.60	288.90
704.93	288.35
705.26	287.96
705.60	287.48
705.93	286.99
706.27	286.54
706.60	286.17
706.94	285.87
707.27	285.33
707.61	284.97
707.94	284.48
708.27	283.87
708.61	283.29
708.94	282.85
709.28	282.24
709.61	281.76
709.94	281.36
710.28	280.89
710.61	280.33
710.95	279.60
711.28	279.19
711.61	278.66
711.95	278.29
712.28	277.67
712.61	277.13
712.95	276.73
713.28	276.38
713.61	275.81
713.95	275.19
714.28	274.83
714.61	274.30
714.95	273.83
715.28	273.37
715.61	272.89
715.95	272.46
716.28	272.07
716.61	271.70
716.95	271.22
717.28	270.74
717.61	270.34
717.94	269.94
718.28	269.43
718.61	269.11
718.94	268.65
719.27	268.38
719.61	268.10
719.94	267.74
720.27	267.33
720.60	266.98
720.94	266.64
721.27	266.25
721.60	265.95
721.93	265.60
722.27	265.34
722.60	265.10
722.93	264.76
723.26	264.52
723.59	264.24
723.93	264.00
724.26	263.80
724.59	263.54
724.92	263.31
725.25	263.11
725.59	262.85
725.92	262.68
726.25	262.40
726.58	262.11
726.91	261.86
727.24	261.65
727.57	261.43
727.91	261.14
728.24	260.93
728.57	260.69
728.90	260.54
729.23	260.29
729.56	260.19
729.89	260.00
730.22	259.75
730.55	259.49
730.89	259.28
731.22	259.02
731.55	258.80
731.88	258.57
732.21	258.35
732.54	258.11
732.87	257.90
733.20	257.71
733.53	257.53
733.86	257.30
734.19	257.02
734.52	256.89
734.85	256.88
735.18	256.66
735.51	256.56
735.84	256.37
736.17	256.23
736.50	255.92
736.83	255.99
737.16	255.80
737.49	255.68
737.82	255.56
738.15	255.40
738.48	255.18
738.81	255.08
739.14	254.93
739.47	254.79
739.80	254.55
740.13	254.41
740.46	254.18
740.79	254.01
741.12	253.79
741.45	253.57
741.78	253.29
742.11	253.15
742.44	252.91
742.77	252.74
743.10	252.50
743.43	252.37
743.75	251.96
744.08	252.08
744.41	251.85
744.74	251.59
745.07	251.38
745.40	251.30
745.73	251.20
746.06	251.04
746.39	250.85
746.71	250.74
747.04	250.53
747.37	250.39
747.70	250.30
748.03	250.22
748.36	250.07
748.68	249.92
749.01	249.72
749.34	249.59
749.67	249.46
750.00	249.38
750.33	249.36
750.65	249.24
750.98	248.86
751.31	248.74
751.64	248.65
751.97	248.66
752.29	248.48
752.62	248.20
752.95	248.05
753.28	247.90
753.60	247.73
753.93	247.66
754.26	247.55
754.59	247.39
754.91	247.17
755.24	247.04
755.57	246.88
755.90	246.76
756.22	246.66
756.55	246.46
756.88	246.26
757.20	246.01
757.53	245.86
757.86	245.72
758.19	245.60
758.51	245.52
758.84	245.29
759.17	245.21
759.49	245.09
759.82	245.05
760.15	244.97
760.47	244.91
760.80	244.75
761.13	244.69
761.45	244.58
761.78	244.53
762.11	244.43
762.43	244.35
762.76	244.27
763.08	244.17
763.41	244.12
763.74	244.07
764.06	244.00
764.39	243.91
764.71	243.82
765.04	243.71
765.37	243.57
765.69	243.47
766.02	243.36
766.34	243.33
766.67	243.15
767.00	243.13
767.32	243.15
767.65	243.19
767.97	243.14
768.30	243.03
768.62	242.97
768.95	242.88
769.27	242.81
769.60	242.80
769.92	242.70
770.25	242.62
770.57	242.53
770.90	242.44
771.22	242.28
771.55	242.24
771.87	242.22
772.20	242.17
772.52	242.33
772.85	242.53
773.17	242.42
773.50	242.42
773.82	242.27
774.15	242.07
774.47	241.91
774.80	241.80
775.12	241.76
775.45	241.63
775.77	241.65
776.09	241.61
776.42	241.53
776.74	241.57
777.07	241.51
777.39	241.46
777.72	241.39
778.04	241.49
778.36	241.40
778.69	241.35
779.01	241.29
779.33	241.01
779.66	240.71
779.98	240.69
780.31	240.65
780.63	240.72
780.95	240.75
781.28	240.72
781.60	240.67
781.92	240.60
782.25	240.67
782.57	240.56
782.89	240.52
783.22	240.50
783.54	240.39
783.86	240.38
784.19	240.33
784.51	240.36
784.83	240.26
785.16	240.22
785.48	240.22
785.80	240.20
786.12	240.26
786.45	240.23
786.77	240.19
787.09	240.16
787.42	240.04
787.74	240.01
788.06	239.98
788.38	239.92
788.71	239.86
789.03	239.80
789.35	239.81
789.67	239.72
789.99	239.67
790.32	239.57
790.64	239.62
790.96	239.73
791.28	239.63
791.61	239.60
791.93	239.62
792.25	239.58
792.57	239.74
792.89	239.67
793.21	239.67
793.54	239.61
793.86	239.57
794.18	239.58
794.50	239.52
794.82	239.57
795.14	239.61
795.47	239.68
795.79	239.64
796.11	239.61
796.43	239.61
796.75	239.59
797.07	239.66
797.39	239.61
797.71	239.52
798.04	239.48
798.36	239.45
798.68	239.39
799.00	239.39
799.32	239.24
799.64	239.23
799.96	239.20
800.28	239.27
800.60	239.23
800.92	239.23
801.24	239.22
801.56	239.15
801.89	239.09
802.21	239.13
802.53	239.11
802.85	239.15
803.17	239.23
803.49	239.17
803.81	239.10
804.13	239.07
804.45	238.95
804.77	239.04
805.09	239.02
805.41	238.97
805.73	238.92
806.05	238.84
806.37	238.83
806.69	238.80
807.01	238.81
807.33	238.80
807.65	238.72
807.97	238.80
808.28	238.71
808.60	238.75
808.92	238.66
809.24	238.81
809.56	238.77
809.88	238.71
810.20	238.75
810.52	238.77
810.84	238.71
811.16	238.68
811.48	238.59
811.80	238.64
812.12	238.64
812.43	238.62
812.75	238.65
813.07	238.61
813.39	238.64
813.71	238.51
814.03	238.48
814.35	238.42
814.67	238.30
814.98	238.36
815.30	238.34
815.62	238.29
815.94	238.06
816.26	238.03
816.58	237.93
816.89	237.87
817.21	237.86
817.53	237.84
817.85	237.92
818.17	237.93
818.48	237.89
818.80	237.91
819.12	237.93
819.44	237.86
819.76	237.75
820.07	237.70
820.39	237.71
820.71	237.71
821.03	237.69
821.34	237.64
821.66	237.65
821.98	237.64
822.30	237.62
822.61	237.76
822.93	237.67
823.25	237.68
823.57	237.65
823.88	237.67
824.20	237.65
824.52	237.59
824.83	237.50
825.15	237.40
825.47	237.36
825.79	237.32
826.10	237.30
826.42	237.33
826.74	237.36
827.05	237.36
827.37	237.35
827.69	237.32
828.00	237.38
828.32	237.34
828.64	237.28
828.95	237.37
829.27	237.32
829.58	237.32
829.90	237.32
830.22	237.34
830.53	237.22
830.85	237.24
831.17	237.18
831.48	237.20
831.80	237.23
832.11	237.22
832.43	237.15
832.75	237.21
833.06	237.30
833.38	237.22
833.69	237.21
834.01	237.23
834.32	237.30
834.64	237.22
834.96	237.23
835.27	237.25
835.59	237.15
835.90	237.06
836.22	237.06
836.53	237.10
836.85	237.07
837.16	237.30
837.48	237.29
837.79	237.36
838.11	237.35
838.42	237.40
838.74	237.43
839.05	237.47
839.37	237.40
839.68	237.30
840.00	237.31
840.31	237.31
840.63	237.28
840.94	237.22
841.26	237.24
841.57	237.22
841.88	237.28
842.20	237.25
842.51	237.29
842.83	237.29
843.14	237.40
843.46	237.46
843.77	237.33
844.08	237.28
844.40	237.21
844.71	237.19
845.03	237.11
845.34	237.07
845.65	237.09
845.97	237.11
846.28	237.15
846.60	237.14
846.91	237.10
847.22	237.12
847.54	237.14
847.85	237.14
848.16	237.12
848.48	237.01
848.79	237.15
849.10	237.15
849.42	237.15
849.73	236.98
850.04	236.98
850.36	236.97
850.67	237.06
850.98	237.08
851.30	237.15
851.61	237.15
851.92	237.15
852.23	237.19
852.55	237.16
852.86	237.15
853.17	237.18
853.49	237.25
853.80	237.31
854.11	237.34
854.42	237.41
854.74	237.33
855.05	237.37
855.36	237.20
855.67	237.18
855.99	237.22
856.30	237.45
856.61	237.43
856.92	237.40
857.23	237.35
857.55	237.37
857.86	237.34
858.17	237.40
858.48	237.34
858.79	237.33
859.11	237.38
859.42	237.34
859.73	237.29
860.04	237.26
860.35	237.14
860.66	237.08
860.98	237.03
861.29	237.08
861.60	237.00
861.91	237.05
862.22	237.01
862.53	236.92
862.84	236.67
863.16	236.65
863.47	236.63
863.78	236.56
864.09	236.54
864.40	236.53
864.71	236.51
865.02	236.56
865.33	236.47
865.64	236.42
865.95	236.43
866.27	236.63
866.58	236.66
866.89	236.67
867.20	236.62
867.51	236.53
867.82	236.51
868.13	236.62
868.44	236.59
868.75	236.63
869.06	236.68
869.37	236.73
869.68	236.69
869.99	236.73
870.30	236.72
870.61	236.72
870.92	236.70
871.23	236.68
871.54	236.73
871.85	236.79
872.16	236.82
872.47	236.76
872.78	236.59
873.09	236.58
873.40	236.56
873.71	236.62
874.02	236.68
874.33	236.73
874.64	236.68
874.95	236.69
875.26	236.73
875.56	236.72
875.87	236.61
876.18	236.60
876.49	236.77
876.80	236.81
877.11	236.77
877.42	236.79
877.73	236.79
878.04	236.73
878.35	236.76
878.66	236.75
878.96	236.75
879.27	236.76
879.58	236.76
879.89	236.76
880.20	236.81
880.51	236.83
880.82	236.78
881.12	236.75
881.43	236.73
881.74	236.68
882.05	236.71
882.36	236.78
882.67	236.83
882.97	236.65
883.28	236.62
883.59	236.67
883.90	236.65
884.21	236.67
884.51	236.67
884.82	236.60
885.13	236.62
885.44	236.66
885.74	236.64
886.05	236.62
886.36	236.57
886.67	236.50
886.98	236.61
887.28	236.59
887.59	236.67
887.90	236.69
888.20	236.69
888.51	236.70
888.82	236.66
889.13	236.69
889.43	236.83
889.74	236.84
890.05	236.76
890.35	236.75
890.66	236.72
890.97	236.70
891.28	236.70
891.58	236.69
891.89	236.74
892.20	236.68
892.50	236.68
892.81	236.69
893.12	236.67
893.42	236.55
893.73	236.60
894.04	236.54
894.34	236.54
894.65	236.45
894.95	236.39
895.26	236.41
895.57	236.49
895.87	236.30
896.18	236.35
896.48	236.41
896.79	236.48
897.10	236.54
897.40	236.58
897.71	236.55
898.01	236.59
898.32	236.54
898.63	236.56
898.93	236.59
899.24	236.59
899.54	236.66
899.85	236.68
900.15	236.67
900.46	236.65
900.76	236.64
901.07	236.70
901.38	236.72
901.68	236.78
901.99	236.64
902.29	236.67
902.60	236.60
902.90	236.58
903.21	236.52
903.51	236.47
903.82	236.53
904.12	236.57
904.43	236.52
904.73	236.48
905.03	236.50
905.34	236.71
905.64	236.72
905.95	236.62
906.25	236.61
906.56	236.62
906.86	236.69
907.17	236.65
907.47	236.67
907.77	236.66
908.08	236.58
908.38	236.65
908.69	236.70
908.99	236.73
909.30	236.78
909.60	236.81
909.90	236.83
910.21	236.73
910.51	236.68
910.81	236.70
911.12	236.77
911.42	236.77
911.73	236.50
912.03	236.50
912.33	236.55
912.64	236.49
912.94	236.48
913.24	236.39
913.55	236.42
913.85	236.43
914.15	236.48
914.46	236.52
914.76	236.48
915.06	236.38
915.37	236.32
915.67	236.21
915.97	236.19
916.27	236.15
916.58	236.15
916.88	236.18
917.18	236.17
917.49	236.29
917.79	236.26
918.09	236.31
918.39	236.33
918.70	236.36
919.00	236.38
919.30	236.50
919.60	236.49
919.91	236.46
920.21	236.39
920.51	236.35
920.81	236.33
921.12	236.33
921.42	236.38
921.72	236.42
922.02	236.46
922.32	236.49
922.63	236.55
922.93	236.66
923.23	236.64
923.53	236.61
923.83	236.44
924.13	236.48
924.44	236.49
924.74	236.53
925.04	236.50
925.34	236.53
925.64	236.43
925.94	236.44
926.24	236.61
926.55	236.64
926.85	236.64
927.15	236.65
927.45	236.64
927.75	236.58
928.05	236.63
928.35	236.65
928.65	236.69
928.95	236.70
929.26	236.59
929.56	236.64
929.86	236.70
930.16	236.74
930.46	236.73
930.76	236.72
931.06	236.62
931.36	236.59
931.66	236.63
931.96	236.63
932.26	236.62
932.56	236.47
932.86	236.48
933.16	236.47
933.46	236.48
933.76	236.42
934.06	236.47
934.36	236.52
934.66	236.53
934.96	236.50
935.26	236.46
935.56	236.56
935.86	236.48
936.16	236.42
936.46	236.36
936.76	236.30
937.06	236.30
937.36	236.33
937.66	236.37
937.96	236.38
938.26	236.33
938.56	236.34
938.86	236.33
939.16	236.35
939.46	236.41
939.76	236.40
940.06	236.46
940.35	236.42
940.65	236.29
940.95	236.29
941.25	236.24
941.55	236.20
941.85	236.09
942.15	236.10
942.45	236.16
942.75	236.17
943.04	236.19
943.34	236.16
943.64	236.13
943.94	236.09
944.24	236.05
944.54	236.04
944.84	236.04
945.13	236.03
945.43	236.02
945.73	235.99
946.03	235.96
946.33	235.94
946.62	235.89
946.92	235.92
947.22	235.89
947.52	235.86
947.82	235.90
948.11	235.94
948.41	235.96
948.71	235.92
949.01	235.94
949.31	235.91
949.60	235.93
949.90	235.99
950.20	235.99
950.50	236.02
950.79	236.02
951.09	236.04
951.39	236.05
951.69	236.05
951.98	236.08
952.28	236.10
952.58	236.09
952.87	236.22
953.17	236.22
953.47	236.16
953.76	236.17
954.06	236.16
954.36	236.07
954.66	236.05
954.95	236.09
955.25	236.12
955.55	236.16
955.84	236.13
956.14	236.13
956.44	236.16
956.73	236.11
957.03	236.12
957.32	236.17
957.62	236.15
957.92	236.18
958.21	236.14
958.51	236.39
958.81	236.40
959.10	236.30
959.40	236.37
959.69	236.46
959.99	236.47
960.29	236.48
960.58	236.49
960.88	236.60
961.17	236.58
961.47	236.58
961.76	236.56
962.06	236.56
962.36	236.58
962.65	236.58
962.95	236.54
963.24	236.53
963.54	236.47
963.83	236.48
964.13	236.47
964.42	236.44
964.72	236.26
965.01	236.32
965.31	236.36
965.60	236.27
965.90	236.40
966.19	236.35
966.49	236.35
966.78	236.35
967.08	236.31
967.37	236.31
967.67	236.27
967.96	236.31
968.26	236.35
968.55	236.32
968.85	236.33
969.14	236.36
969.43	236.36
969.73	236.33
970.02	236.35
970.32	236.30
970.61	236.33
970.91	236.26
971.20	236.14
971.49	236.13
971.79	236.18
972.08	236.00
972.38	236.07
972.67	236.06
972.96	236.11
973.26	236.03
973.55	236.07
973.85	236.07
974.14	236.06
974.43	236.03
974.73	236.03
975.02	235.98
975.31	236.00
975.61	235.98
975.90	236.04
976.19	235.97
976.49	235.99
976.78	235.95
977.07	235.89
977.37	235.95
977.66	235.95
977.95	235.96
978.24	235.97
978.54	236.02
978.83	235.98
979.12	235.94
979.42	235.95
979.71	235.89
980.00	235.89
980.29	235.84
980.59	235.79
980.88	235.84
981.17	235.86
981.46	235.86
981.76	235.87
982.05	235.86
982.34	235.93
982.63	235.95
982.93	235.97
983.22	236.07
983.51	236.08
983.80	236.07
984.09	236.04
984.39	236.02
984.68	236.00
984.97	236.05
985.26	236.08
985.55	236.18
985.85	236.16
986.14	236.23
986.43	236.30
986.72	236.33
987.01	236.26
987.30	236.26
987.59	236.24
987.89	236.30
988.18	236.28
988.47	236.31
988.76	236.27
989.05	236.28
989.34	236.27
989.63	236.26
989.92	236.31
990.22	236.35
990.51	236.37
990.80	236.31
991.09	236.34
991.38	236.37
991.67	236.30
991.96	236.31
992.25	236.30
992.54	236.24
992.83	236.24
993.12	236.20
993.41	236.28
993.70	236.44
993.99	236.43
994.28	236.43
994.58	236.47
994.87	236.42
995.16	236.41
995.45	236.39
995.74	236.40
996.03	236.41
996.32	236.40
996.61	236.48
996.90	236.49
997.19	236.44
997.48	236.43
997.77	236.40
998.06	236.38
998.34	236.30
998.63	236.32
998.92	236.37
999.21	236.49
999.50	236.48
999.79	236.35
1000.08	236.32
1000.37	236.36
1000.66	236.27
1000.95	236.36
1001.24	236.37
1001.53	236.45
1001.82	236.45
1002.11	236.36
1002.40	236.37
1002.68	236.42
1002.97	236.54
1003.26	236.52
1003.55	236.46
1003.84	236.49
1004.13	236.57
1004.42	236.63
1004.71	236.65
1004.99	236.58
1005.28	236.53
1005.57	236.45
1005.86	236.45
1006.15	236.53
1006.44	236.44
1006.72	236.45
1007.01	236.43
1007.30	236.40
1007.59	236.31
1007.88	236.33
1008.17	236.34
1008.45	236.30
1008.74	236.22
1009.03	236.08
1009.32	236.16
1009.60	236.14
1009.89	236.10
1010.18	236.06
1010.47	236.02
1010.76	235.97
1011.04	236.02
1011.33	236.00
1011.62	236.03
1011.91	236.01
1012.19	235.93
1012.48	235.93
1012.77	235.96
1013.05	236.05
1013.34	236.05
1013.63	236.10
1013.92	236.10
1014.20	236.10
1014.49	236.10
1014.78	236.02
1015.06	236.02
1015.35	235.97
1015.64	236.02
1015.92	236.03
1016.21	236.07
1016.50	236.12
1016.78	236.20
1017.07	236.20
1017.36	236.20
1017.64	236.23
1017.93	236.27
1018.22	236.33
1018.50	236.34
1018.79	236.31
1019.08	236.19
1019.36	236.24
1019.65	236.18
1019.93	236.27
1020.22	236.32
1020.51	236.48
1020.79	236.56
1021.08	236.87
1021.36	235.70
1021.65	235.87
1021.94	235.67
1022.22	236.63
1022.51	235.63
1022.79	238.13
1023.08	237.00
1023.36	239.37
1023.65	236.63
>>>>>End Processed Spectral Data<<<<<
