SpectraSuite Data File
++++++++++++++++++++++++++++++++++++
Date: Mon Oct 22 15:13:44 EDT 2012
User: group
Dark Spectrum Present: No
Reference Spectrum Present: No
Number of Sampled Component Spectra: 1
Spectrometers: USB2E7196
Integration Time (usec): 91000 (USB2E7196)
Spectra Averaged: 30 (USB2E7196)
Boxcar Smoothing: 10 (USB2E7196)
Correct for Electrical Dark: No (USB2E7196)
Strobe/Lamp Enabled: No (USB2E7196)
Correct for Detector Non-linearity: No (USB2E7196)
Correct for Stray Light: No (USB2E7196)
Number of Pixels in Processed Spectrum: 2048
>>>>>Begin Processed Spectral Data<<<<<
339.09	0.00
339.48	224.57
339.86	226.43
340.24	227.50
340.63	227.93
341.01	233.47
341.39	231.80
341.78	233.03
342.16	234.97
342.54	234.37
342.93	222.88
343.31	234.09
343.69	234.65
344.07	235.08
344.46	235.56
344.84	236.02
345.22	236.16
345.60	236.42
345.99	236.64
346.37	236.78
346.75	236.87
347.13	236.95
347.52	236.99
347.90	237.12
348.28	237.16
348.66	237.24
349.05	237.17
349.43	237.21
349.81	237.25
350.19	237.35
350.57	237.40
350.96	237.47
351.34	237.65
351.72	237.73
352.10	237.83
352.48	237.84
352.87	237.86
353.25	237.94
353.63	238.01
354.01	238.01
354.39	238.02
354.77	238.18
355.15	238.23
355.54	238.28
355.92	238.25
356.30	238.27
356.68	238.39
357.06	238.44
357.44	238.47
357.82	238.57
358.20	238.58
358.58	238.64
358.97	238.66
359.35	238.70
359.73	238.80
360.11	238.86
360.49	238.96
360.87	239.00
361.25	239.07
361.63	239.13
362.01	239.18
362.39	239.25
362.77	239.19
363.15	239.19
363.53	239.21
363.91	239.28
364.29	239.31
364.67	239.13
365.05	239.17
365.43	239.21
365.81	239.18
366.19	239.27
366.57	239.38
366.95	239.42
367.33	239.29
367.71	239.21
368.09	239.24
368.47	239.21
368.85	239.16
369.23	239.16
369.61	239.05
369.99	239.11
370.37	239.10
370.75	239.15
371.13	239.14
371.51	239.10
371.89	239.02
372.27	239.02
372.65	239.08
373.03	239.00
373.41	238.98
373.78	238.90
374.16	238.83
374.54	238.66
374.92	238.57
375.30	238.63
375.68	238.52
376.06	238.50
376.44	238.43
376.82	238.40
377.19	238.37
377.57	238.33
377.95	238.24
378.33	238.20
378.71	238.06
379.09	238.04
379.47	238.03
379.84	237.97
380.22	237.91
380.60	237.74
380.98	237.67
381.36	237.58
381.73	237.54
382.11	237.45
382.49	237.46
382.87	237.39
383.25	237.28
383.62	237.53
384.00	237.42
384.38	237.39
384.76	237.42
385.13	237.46
385.51	237.37
385.89	237.32
386.27	237.22
386.64	237.23
387.02	237.24
387.40	237.17
387.78	237.13
388.15	237.07
388.53	237.07
388.91	237.11
389.29	237.09
389.66	237.11
390.04	237.04
390.42	237.00
390.79	237.00
391.17	237.03
391.55	236.76
391.92	236.77
392.30	236.72
392.68	236.59
393.05	236.49
393.43	236.53
393.81	236.48
394.18	236.43
394.56	236.44
394.94	236.39
395.31	236.33
395.69	236.43
396.06	236.53
396.44	236.57
396.82	236.51
397.19	236.69
397.57	236.67
397.95	236.71
398.32	236.71
398.70	236.80
399.07	236.89
399.45	236.97
399.82	237.07
400.20	237.16
400.58	237.31
400.95	237.38
401.33	237.48
401.70	237.73
402.08	237.87
402.45	237.99
402.83	238.19
403.20	238.36
403.58	238.48
403.95	238.61
404.33	238.82
404.71	239.06
405.08	239.33
405.46	239.58
405.83	239.88
406.21	240.16
406.58	240.53
406.96	240.77
407.33	241.12
407.70	241.47
408.08	242.01
408.45	242.51
408.83	242.93
409.20	243.43
409.58	243.90
409.95	244.53
410.33	245.19
410.70	245.81
411.08	246.59
411.45	247.34
411.82	248.19
412.20	249.07
412.57	250.16
412.95	250.98
413.32	252.12
413.69	253.22
414.07	254.41
414.44	255.70
414.82	257.17
415.19	258.82
415.56	260.46
415.94	262.16
416.31	264.14
416.68	266.15
417.06	268.44
417.43	270.58
417.81	272.99
418.18	275.48
418.55	278.20
418.93	281.05
419.30	284.05
419.67	287.17
420.04	290.43
420.42	293.84
420.79	297.80
421.16	301.73
421.54	305.85
421.91	310.20
422.28	314.62
422.66	319.35
423.03	323.99
423.40	328.87
423.77	334.04
424.15	339.32
424.52	344.99
424.89	351.00
425.26	356.87
425.64	362.55
426.01	368.78
426.38	375.28
426.75	381.88
427.13	388.77
427.50	395.95
427.87	403.54
428.24	411.14
428.61	418.50
428.99	426.57
429.36	435.45
429.73	444.07
430.10	452.74
430.47	461.62
430.85	471.03
431.22	480.94
431.59	491.31
431.96	501.40
432.33	512.48
432.70	523.46
433.08	536.22
433.45	548.16
433.82	560.03
434.19	573.42
434.56	586.55
434.93	599.18
435.30	611.92
435.68	625.93
436.05	639.75
436.42	653.65
436.79	666.32
437.16	680.10
437.53	694.56
437.90	708.98
438.27	723.36
438.64	737.91
439.01	751.54
439.38	763.93
439.75	775.93
440.13	789.44
440.50	802.07
440.87	812.68
441.24	823.55
441.61	835.75
441.98	844.72
442.35	855.18
442.72	865.60
443.09	875.62
443.46	881.87
443.83	886.20
444.20	890.11
444.57	895.51
444.94	898.10
445.31	900.87
445.68	903.30
446.05	904.38
446.42	903.54
446.79	902.19
447.16	900.66
447.53	899.39
447.90	894.43
448.27	889.34
448.64	882.05
449.01	876.98
449.37	867.65
449.74	858.81
450.11	847.97
450.48	836.43
450.85	824.63
451.22	814.47
451.59	805.05
451.96	795.87
452.33	783.77
452.70	772.80
453.07	759.68
453.43	746.46
453.80	733.56
454.17	721.11
454.54	709.47
454.91	697.14
455.28	685.08
455.65	673.83
456.02	662.46
456.38	653.17
456.75	641.38
457.12	631.75
457.49	622.02
457.86	612.76
458.23	604.84
458.59	596.20
458.96	587.47
459.33	579.67
459.70	571.73
460.07	565.40
460.43	558.12
460.80	551.20
461.17	545.13
461.54	539.04
461.91	533.20
462.27	527.16
462.64	522.00
463.01	516.29
463.38	510.68
463.74	505.49
464.11	500.67
464.48	496.48
464.85	491.90
465.21	488.53
465.58	484.90
465.95	480.39
466.32	476.66
466.68	472.93
467.05	469.18
467.42	465.47
467.78	461.63
468.15	457.99
468.52	455.47
468.88	452.03
469.25	448.84
469.62	446.33
469.98	443.65
470.35	441.13
470.72	438.82
471.08	436.31
471.45	434.00
471.82	431.72
472.18	429.28
472.55	427.63
472.92	425.57
473.28	423.91
473.65	422.25
474.02	420.51
474.38	419.17
474.75	417.98
475.11	416.70
475.48	415.69
475.85	414.90
476.21	414.07
476.58	413.42
476.94	412.97
477.31	412.29
477.67	411.77
478.04	411.42
478.41	411.20
478.77	411.29
479.14	411.19
479.50	411.23
479.87	411.51
480.23	411.69
480.60	411.86
480.96	412.02
481.33	412.65
481.69	413.33
482.06	413.88
482.42	414.41
482.79	415.08
483.15	416.12
483.52	417.37
483.88	418.37
484.25	419.46
484.61	420.73
484.98	422.08
485.34	423.69
485.71	425.30
486.07	427.09
486.44	428.66
486.80	430.52
487.17	432.67
487.53	434.81
487.90	437.05
488.26	439.50
488.62	442.03
488.99	444.48
489.35	447.05
489.72	449.86
490.08	452.81
490.44	455.78
490.81	458.91
491.17	461.98
491.54	465.45
491.90	469.02
492.26	472.71
492.63	476.42
492.99	480.10
493.36	484.09
493.72	488.27
494.08	492.57
494.45	496.99
494.81	501.37
495.17	505.98
495.54	510.73
495.90	515.55
496.26	520.46
496.63	525.47
496.99	530.73
497.35	536.11
497.72	541.66
498.08	547.13
498.44	552.74
498.80	558.60
499.17	564.46
499.53	570.31
499.89	576.27
500.26	582.35
500.62	588.62
500.98	594.99
501.34	601.17
501.71	607.58
502.07	614.08
502.43	620.54
502.79	627.22
503.16	633.89
503.52	640.55
503.88	647.21
504.24	653.88
504.60	660.27
504.97	666.77
505.33	673.26
505.69	680.28
506.05	687.06
506.41	693.71
506.78	700.20
507.14	706.78
507.50	713.49
507.86	720.00
508.22	726.44
508.59	732.54
508.95	738.82
509.31	745.05
509.67	751.23
510.03	757.20
510.39	763.00
510.75	768.75
511.12	774.54
511.48	780.15
511.84	785.57
512.20	791.03
512.56	796.50
512.92	801.71
513.28	806.68
513.64	811.23
514.00	815.52
514.37	819.79
514.73	823.94
515.09	827.79
515.45	831.69
515.81	835.34
516.17	838.88
516.53	842.27
516.89	845.69
517.25	848.67
517.61	851.74
517.97	854.58
518.33	856.87
518.69	859.00
519.05	861.26
519.41	863.17
519.77	865.19
520.13	866.82
520.49	868.39
520.85	869.89
521.21	871.36
521.57	872.99
521.93	873.94
522.29	874.96
522.65	875.59
523.01	876.18
523.37	876.41
523.73	876.99
524.09	877.06
524.45	876.82
524.81	876.74
525.17	876.47
525.53	876.15
525.89	875.97
526.25	875.78
526.61	875.00
526.97	874.64
527.33	874.06
527.68	873.75
528.04	873.00
528.40	871.85
528.76	870.99
529.12	869.97
529.48	869.27
529.84	868.17
530.20	867.37
530.56	866.34
530.91	865.73
531.27	864.71
531.63	864.07
531.99	863.18
532.35	862.19
532.71	861.17
533.07	860.25
533.42	859.45
533.78	858.45
534.14	857.64
534.50	856.76
534.86	856.08
535.21	854.66
535.57	853.85
535.93	852.74
536.29	852.04
536.65	851.31
537.00	850.66
537.36	850.13
537.72	849.49
538.08	849.12
538.44	848.46
538.79	847.93
539.15	847.14
539.51	846.78
539.87	846.69
540.22	846.23
540.58	846.10
540.94	845.75
541.29	845.22
541.65	844.90
542.01	844.63
542.37	844.23
542.72	844.19
543.08	843.73
543.44	843.90
543.79	843.30
544.15	843.09
544.51	842.99
544.87	842.86
545.22	842.71
545.58	842.49
545.94	842.44
546.29	841.90
546.65	841.63
547.01	841.27
547.36	840.96
547.72	841.00
548.07	840.76
548.43	840.57
548.79	840.68
549.14	840.68
549.50	840.79
549.86	840.89
550.21	841.00
550.57	841.52
550.92	841.74
551.28	842.24
551.64	842.46
551.99	842.70
552.35	842.98
552.70	843.34
553.06	843.67
553.41	843.96
553.77	844.73
554.13	845.45
554.48	846.29
554.84	846.96
555.19	847.87
555.55	848.86
555.90	849.88
556.26	850.80
556.61	851.84
556.97	852.52
557.32	853.52
557.68	854.61
558.03	855.56
558.39	856.66
558.74	857.88
559.10	858.98
559.45	860.09
559.81	861.57
560.16	862.81
560.52	864.24
560.87	865.88
561.23	867.40
561.58	869.43
561.94	871.09
562.29	872.47
562.64	874.12
563.00	875.45
563.35	876.91
563.71	878.52
564.06	879.93
564.42	881.37
564.77	882.43
565.12	883.68
565.48	885.35
565.83	886.87
566.19	888.59
566.54	890.22
566.89	891.77
567.25	893.12
567.60	894.85
567.96	896.25
568.31	897.43
568.66	898.71
569.02	899.56
569.37	900.20
569.72	901.09
570.08	901.65
570.43	902.56
570.78	903.47
571.14	904.02
571.49	904.65
571.84	905.90
572.20	907.08
572.55	908.18
572.90	908.86
573.26	909.47
573.61	909.76
573.96	909.97
574.31	910.09
574.67	910.10
575.02	910.02
575.37	910.13
575.72	910.30
576.08	910.49
576.43	910.42
576.78	910.72
577.13	911.01
577.49	911.28
577.84	911.55
578.19	911.82
578.54	912.14
578.90	912.44
579.25	912.12
579.60	911.70
579.95	910.98
580.30	910.62
580.66	910.45
581.01	910.18
581.36	910.08
581.71	909.95
582.06	909.96
582.42	909.71
582.77	909.16
583.12	908.84
583.47	908.41
583.82	908.03
584.17	907.38
584.53	906.89
584.88	906.29
585.23	905.36
585.58	904.46
585.93	903.33
586.28	902.28
586.63	901.19
586.98	900.21
587.34	899.55
587.69	898.27
588.04	896.85
588.39	895.45
588.74	893.72
589.09	892.44
589.44	890.91
589.79	889.57
590.14	888.39
590.49	886.53
590.84	884.80
591.19	883.20
591.54	881.68
591.89	879.61
592.25	877.73
592.60	875.33
592.95	873.01
593.30	871.28
593.65	869.42
594.00	867.63
594.35	866.70
594.70	864.76
595.05	863.13
595.40	861.27
595.75	859.45
596.10	857.91
596.45	855.70
596.80	853.57
597.15	851.30
597.50	849.08
597.85	847.45
598.19	845.50
598.54	843.29
598.89	841.00
599.24	839.24
599.59	837.25
599.94	835.51
600.29	833.64
600.64	831.55
600.99	829.37
601.34	827.18
601.69	824.13
602.04	821.74
602.39	819.18
602.74	817.02
603.08	814.71
603.43	812.51
603.78	810.56
604.13	808.53
604.48	806.58
604.83	804.63
605.18	802.49
605.53	800.51
605.87	798.77
606.22	797.52
606.57	796.30
606.92	795.24
607.27	794.53
607.62	793.79
607.96	792.69
608.31	791.68
608.66	790.50
609.01	789.04
609.36	787.66
609.70	786.11
610.05	784.35
610.40	782.72
610.75	780.76
611.10	778.98
611.44	776.74
611.79	774.40
612.14	771.97
612.49	769.20
612.83	766.47
613.18	763.40
613.53	760.01
613.88	756.21
614.22	752.30
614.57	748.09
614.92	743.73
615.27	739.78
615.61	735.72
615.96	731.97
616.31	728.35
616.65	724.79
617.00	721.46
617.35	718.20
617.70	714.86
618.04	711.57
618.39	708.28
618.74	705.39
619.08	702.37
619.43	699.15
619.78	696.17
620.12	693.09
620.47	690.43
620.82	687.68
621.16	684.84
621.51	682.21
621.85	679.57
622.20	677.02
622.55	674.29
622.89	671.74
623.24	669.23
623.59	666.64
623.93	663.97
624.28	661.11
624.62	658.32
624.97	655.44
625.32	652.63
625.66	649.71
626.01	646.90
626.35	644.34
626.70	641.94
627.04	639.71
627.39	637.33
627.73	634.76
628.08	632.07
628.43	629.34
628.77	626.33
629.12	623.56
629.46	620.89
629.81	618.26
630.15	615.51
630.50	612.67
630.84	609.94
631.19	607.27
631.53	604.86
631.88	602.15
632.22	599.64
632.57	597.19
632.91	594.57
633.26	591.86
633.60	588.98
633.95	586.09
634.29	583.00
634.64	580.13
634.98	577.10
635.32	574.29
635.67	571.89
636.01	569.40
636.36	566.79
636.70	564.28
637.05	561.71
637.39	559.16
637.73	556.54
638.08	554.06
638.42	551.57
638.77	549.13
639.11	546.66
639.45	544.17
639.80	541.68
640.14	539.19
640.49	536.82
640.83	534.47
641.17	532.22
641.52	530.07
641.86	527.91
642.20	526.08
642.55	524.08
642.89	521.90
643.23	519.89
643.58	518.09
643.92	515.85
644.26	513.72
644.61	511.77
644.95	509.72
645.29	507.56
645.64	505.56
645.98	503.53
646.32	501.68
646.66	499.52
647.01	497.57
647.35	495.88
647.69	493.90
648.04	492.03
648.38	490.07
648.72	487.99
649.06	485.88
649.41	483.68
649.75	481.71
650.09	479.84
650.43	477.85
650.78	475.56
651.12	473.47
651.46	471.50
651.80	469.55
652.14	467.76
652.49	465.94
652.83	463.87
653.17	461.64
653.51	459.38
653.85	457.40
654.20	455.33
654.54	453.18
654.88	451.36
655.22	449.36
655.56	447.54
655.90	445.76
656.25	444.00
656.59	442.19
656.93	440.24
657.27	438.32
657.61	436.28
657.95	434.73
658.29	433.08
658.64	431.33
658.98	429.43
659.32	427.43
659.66	425.64
660.00	423.92
660.34	422.28
660.68	420.70
661.02	418.91
661.36	417.30
661.70	415.61
662.05	413.87
662.39	412.36
662.73	410.75
663.07	409.15
663.41	407.46
663.75	405.78
664.09	404.17
664.43	402.57
664.77	401.13
665.11	399.37
665.45	397.91
665.79	396.36
666.13	394.79
666.47	393.38
666.81	391.82
667.15	390.18
667.49	388.75
667.83	387.42
668.17	386.03
668.51	384.54
668.85	383.23
669.19	382.00
669.53	380.47
669.87	378.98
670.21	377.60
670.55	376.24
670.89	375.11
671.23	373.77
671.57	372.51
671.91	371.25
672.25	370.06
672.58	368.85
672.92	367.49
673.26	366.33
673.60	365.07
673.94	363.93
674.28	362.89
674.62	361.68
674.96	360.43
675.30	359.30
675.64	358.08
675.97	356.82
676.31	355.48
676.65	354.35
676.99	353.42
677.33	352.23
677.67	351.24
678.01	350.00
678.34	348.97
678.68	347.90
679.02	346.74
679.36	345.72
679.70	344.59
680.04	343.63
680.37	342.50
680.71	341.43
681.05	340.44
681.39	339.40
681.73	338.37
682.06	337.38
682.40	336.43
682.74	335.57
683.08	334.75
683.42	333.80
683.75	333.00
684.09	331.94
684.43	331.08
684.77	330.10
685.10	329.23
685.44	328.38
685.78	327.38
686.12	326.62
686.45	325.64
686.79	324.66
687.13	323.86
687.46	323.11
687.80	322.44
688.14	321.55
688.48	320.79
688.81	319.96
689.15	319.26
689.49	318.45
689.82	317.66
690.16	316.74
690.50	316.04
690.83	315.18
691.17	314.28
691.51	313.44
691.84	312.66
692.18	311.82
692.52	310.99
692.85	310.34
693.19	309.63
693.52	308.95
693.86	308.22
694.20	307.46
694.53	306.75
694.87	305.90
695.21	305.15
695.54	304.43
695.88	303.66
696.21	302.78
696.55	302.13
696.88	301.37
697.22	300.67
697.56	299.97
697.89	299.35
698.23	298.80
698.56	298.25
698.90	297.72
699.23	297.08
699.57	296.46
699.90	295.83
700.24	295.19
700.58	294.62
700.91	294.16
701.25	293.75
701.58	293.24
701.92	292.78
702.25	292.30
702.59	291.78
702.92	291.41
703.26	290.98
703.59	290.49
703.93	290.23
704.26	289.88
704.60	289.45
704.93	288.99
705.26	288.47
705.60	287.99
705.93	287.41
706.27	287.06
706.60	286.65
706.94	286.21
707.27	285.71
707.61	285.22
707.94	284.77
708.27	284.20
708.61	283.67
708.94	283.20
709.28	282.77
709.61	282.26
709.94	281.71
710.28	281.19
710.61	280.68
710.95	279.97
711.28	279.57
711.61	278.97
711.95	278.47
712.28	277.94
712.61	277.40
712.95	277.04
713.28	276.65
713.61	276.10
713.95	275.52
714.28	275.05
714.61	274.59
714.95	274.05
715.28	273.47
715.61	272.94
715.95	272.45
716.28	271.95
716.61	271.54
716.95	271.11
717.28	270.70
717.61	270.29
717.94	269.94
718.28	269.41
718.61	269.09
718.94	268.65
719.27	268.35
719.61	268.07
719.94	267.69
720.27	267.19
720.60	266.84
720.94	266.51
721.27	266.17
721.60	265.82
721.93	265.51
722.27	265.31
722.60	265.17
722.93	264.85
723.26	264.57
723.59	264.23
723.93	264.03
724.26	263.73
724.59	263.44
724.92	263.12
725.25	262.89
725.59	262.62
725.92	262.43
726.25	262.15
726.58	261.89
726.91	261.57
727.24	261.37
727.57	261.18
727.91	260.97
728.24	260.76
728.57	260.56
728.90	260.40
729.23	260.11
729.56	259.98
729.89	259.71
730.22	259.46
730.55	259.25
730.89	258.96
731.22	258.76
731.55	258.54
731.88	258.40
732.21	258.16
732.54	257.88
732.87	257.64
733.20	257.48
733.53	257.29
733.86	257.18
734.19	256.90
734.52	256.71
734.85	256.59
735.18	256.33
735.51	256.23
735.84	256.06
736.17	255.98
736.50	255.63
736.83	255.76
737.16	255.64
737.49	255.47
737.82	255.29
738.15	255.11
738.48	254.90
738.81	254.68
739.14	254.49
739.47	254.31
739.80	254.14
740.13	253.99
740.46	253.74
740.79	253.48
741.12	253.34
741.45	253.15
741.78	252.97
742.11	252.90
742.44	252.67
742.77	252.55
743.10	252.31
743.43	252.11
743.75	251.70
744.08	251.74
744.41	251.58
744.74	251.44
745.07	251.22
745.40	251.17
745.73	251.14
746.06	250.96
746.39	250.82
746.71	250.63
747.04	250.43
747.37	250.28
747.70	250.17
748.03	250.02
748.36	249.89
748.68	249.71
749.01	249.53
749.34	249.37
749.67	249.16
750.00	249.04
750.33	249.06
750.65	248.99
750.98	248.63
751.31	248.46
751.64	248.36
751.97	248.40
752.29	248.28
752.62	248.03
752.95	247.93
753.28	247.78
753.60	247.70
753.93	247.63
754.26	247.46
754.59	247.27
754.91	247.17
755.24	247.09
755.57	246.96
755.90	246.82
756.22	246.62
756.55	246.46
756.88	246.28
757.20	246.02
757.53	245.85
757.86	245.74
758.19	245.74
758.51	245.60
758.84	245.38
759.17	245.23
759.49	245.17
759.82	245.16
760.15	245.12
760.47	244.98
760.80	244.86
761.13	244.91
761.45	244.83
761.78	244.74
762.11	244.59
762.43	244.49
762.76	244.41
763.08	244.37
763.41	244.31
763.74	244.21
764.06	244.16
764.39	244.04
764.71	243.92
765.04	243.80
765.37	243.70
765.69	243.56
766.02	243.46
766.34	243.33
766.67	243.15
767.00	243.10
767.32	243.18
767.65	243.22
767.97	243.09
768.30	243.05
768.62	243.00
768.95	242.90
769.27	242.83
769.60	242.80
769.92	242.73
770.25	242.64
770.57	242.59
770.90	242.46
771.22	242.42
771.55	242.32
771.87	242.25
772.20	242.21
772.52	242.42
772.85	242.61
773.17	242.57
773.50	242.56
773.82	242.46
774.15	242.29
774.47	242.08
774.80	241.96
775.12	241.90
775.45	241.83
775.77	241.85
776.09	241.78
776.42	241.70
776.74	241.74
777.07	241.68
777.39	241.65
777.72	241.61
778.04	241.58
778.36	241.60
778.69	241.55
779.01	241.50
779.33	241.18
779.66	240.91
779.98	240.86
780.31	240.77
780.63	240.83
780.95	240.78
781.28	240.77
781.60	240.77
781.92	240.75
782.25	240.70
782.57	240.63
782.89	240.61
783.22	240.58
783.54	240.47
783.86	240.46
784.19	240.40
784.51	240.45
784.83	240.34
785.16	240.30
785.48	240.25
785.80	240.19
786.12	240.21
786.45	240.19
786.77	240.14
787.09	240.13
787.42	239.98
787.74	239.98
788.06	239.93
788.38	239.91
788.71	239.83
789.03	239.81
789.35	239.77
789.67	239.72
789.99	239.65
790.32	239.58
790.64	239.60
790.96	239.72
791.28	239.59
791.61	239.59
791.93	239.49
792.25	239.45
792.57	239.54
792.89	239.51
793.21	239.49
793.54	239.46
793.86	239.37
794.18	239.41
794.50	239.36
794.82	239.37
795.14	239.32
795.47	239.38
795.79	239.35
796.11	239.28
796.43	239.24
796.75	239.27
797.07	239.23
797.39	239.21
797.71	239.09
798.04	239.09
798.36	239.13
798.68	239.16
799.00	239.19
799.32	239.09
799.64	239.08
799.96	239.04
800.28	239.05
800.60	239.00
800.92	238.94
801.24	238.87
801.56	238.82
801.89	238.76
802.21	238.70
802.53	238.67
802.85	238.74
803.17	238.80
803.49	238.75
803.81	238.74
804.13	238.69
804.45	238.65
804.77	238.68
805.09	238.62
805.41	238.60
805.73	238.52
806.05	238.47
806.37	238.44
806.69	238.43
807.01	238.43
807.33	238.50
807.65	238.41
807.97	238.55
808.28	238.50
808.60	238.53
808.92	238.52
809.24	238.63
809.56	238.55
809.88	238.52
810.20	238.52
810.52	238.58
810.84	238.54
811.16	238.45
811.48	238.45
811.80	238.54
812.12	238.53
812.43	238.55
812.75	238.55
813.07	238.53
813.39	238.50
813.71	238.41
814.03	238.36
814.35	238.38
814.67	238.27
814.98	238.27
815.30	238.23
815.62	238.16
815.94	238.03
816.26	238.01
816.58	237.91
816.89	237.94
817.21	237.80
817.53	237.75
817.85	237.77
818.17	237.71
818.48	237.55
818.80	237.55
819.12	237.52
819.44	237.46
819.76	237.40
820.07	237.40
820.39	237.42
820.71	237.46
821.03	237.47
821.34	237.42
821.66	237.44
821.98	237.49
822.30	237.47
822.61	237.59
822.93	237.56
823.25	237.53
823.57	237.45
823.88	237.56
824.20	237.58
824.52	237.65
824.83	237.64
825.15	237.65
825.47	237.62
825.79	237.60
826.10	237.59
826.42	237.60
826.74	237.62
827.05	237.60
827.37	237.61
827.69	237.53
828.00	237.53
828.32	237.55
828.64	237.44
828.95	237.58
829.27	237.44
829.58	237.47
829.90	237.57
830.22	237.57
830.53	237.44
830.85	237.42
831.17	237.32
831.48	237.34
831.80	237.40
832.11	237.41
832.43	237.35
832.75	237.35
833.06	237.52
833.38	237.39
833.69	237.38
834.01	237.32
834.32	237.34
834.64	237.36
834.96	237.28
835.27	237.30
835.59	237.23
835.90	237.20
836.22	237.18
836.53	237.12
836.85	237.12
837.16	237.34
837.48	237.38
837.79	237.50
838.11	237.52
838.42	237.49
838.74	237.51
839.05	237.51
839.37	237.52
839.68	237.40
840.00	237.47
840.31	237.49
840.63	237.54
840.94	237.57
841.26	237.57
841.57	237.64
841.88	237.63
842.20	237.60
842.51	237.55
842.83	237.54
843.14	237.68
843.46	237.71
843.77	237.62
844.08	237.51
844.40	237.36
844.71	237.35
845.03	237.31
845.34	237.32
845.65	237.32
845.97	237.36
846.28	237.33
846.60	237.32
846.91	237.31
847.22	237.20
847.54	237.22
847.85	237.20
848.16	237.13
848.48	237.14
848.79	237.15
849.10	237.22
849.42	237.22
849.73	237.06
850.04	237.03
850.36	236.99
850.67	237.07
850.98	237.10
851.30	237.06
851.61	237.02
851.92	236.95
852.23	237.02
852.55	236.95
852.86	236.93
853.17	236.92
853.49	236.93
853.80	236.98
854.11	236.95
854.42	236.98
854.74	236.95
855.05	236.91
855.36	236.82
855.67	236.82
855.99	236.83
856.30	237.11
856.61	237.08
856.92	237.06
857.23	237.06
857.55	237.08
857.86	237.07
858.17	237.13
858.48	237.06
858.79	237.03
859.11	237.09
859.42	237.12
859.73	237.11
860.04	237.12
860.35	237.15
860.66	237.09
860.98	237.08
861.29	237.12
861.60	237.14
861.91	237.19
862.22	237.14
862.53	237.09
862.84	236.84
863.16	236.92
863.47	236.91
863.78	236.90
864.09	236.89
864.40	236.94
864.71	237.02
865.02	237.08
865.33	237.00
865.64	236.90
865.95	236.85
866.27	236.98
866.58	236.94
866.89	236.89
867.20	236.86
867.51	236.78
867.82	236.74
868.13	236.81
868.44	236.78
868.75	236.85
869.06	236.85
869.37	236.84
869.68	236.76
869.99	236.75
870.30	236.77
870.61	236.77
870.92	236.73
871.23	236.63
871.54	236.65
871.85	236.73
872.16	236.76
872.47	236.74
872.78	236.64
873.09	236.65
873.40	236.64
873.71	236.74
874.02	236.71
874.33	236.68
874.64	236.67
874.95	236.67
875.26	236.57
875.56	236.59
875.87	236.57
876.18	236.59
876.49	236.77
876.80	236.70
877.11	236.65
877.42	236.61
877.73	236.63
878.04	236.60
878.35	236.61
878.66	236.67
878.96	236.65
879.27	236.63
879.58	236.56
879.89	236.53
880.20	236.53
880.51	236.55
880.82	236.63
881.12	236.58
881.43	236.58
881.74	236.55
882.05	236.59
882.36	236.60
882.67	236.59
882.97	236.36
883.28	236.38
883.59	236.37
883.90	236.46
884.21	236.45
884.51	236.45
884.82	236.43
885.13	236.36
885.44	236.38
885.74	236.35
886.05	236.41
886.36	236.41
886.67	236.33
886.98	236.50
887.28	236.48
887.59	236.49
887.90	236.48
888.20	236.49
888.51	236.47
888.82	236.42
889.13	236.45
889.43	236.62
889.74	236.60
890.05	236.57
890.35	236.50
890.66	236.48
890.97	236.47
891.28	236.45
891.58	236.52
891.89	236.55
892.20	236.52
892.50	236.47
892.81	236.46
893.12	236.51
893.42	236.37
893.73	236.39
894.04	236.42
894.34	236.46
894.65	236.42
894.95	236.42
895.26	236.43
895.57	236.52
895.87	236.36
896.18	236.39
896.48	236.46
896.79	236.46
897.10	236.56
897.40	236.54
897.71	236.50
898.01	236.51
898.32	236.52
898.63	236.54
898.93	236.57
899.24	236.59
899.54	236.58
899.85	236.65
900.15	236.68
900.46	236.61
900.76	236.63
901.07	236.72
901.38	236.72
901.68	236.79
901.99	236.70
902.29	236.71
902.60	236.73
902.90	236.71
903.21	236.73
903.51	236.70
903.82	236.76
904.12	236.83
904.43	236.79
904.73	236.75
905.03	236.77
905.34	236.96
905.64	236.97
905.95	236.94
906.25	236.89
906.56	236.89
906.86	236.89
907.17	236.90
907.47	236.89
907.77	236.86
908.08	236.76
908.38	236.77
908.69	236.81
908.99	236.84
909.30	236.84
909.60	236.86
909.90	236.86
910.21	236.82
910.51	236.77
910.81	236.83
911.12	236.87
911.42	236.92
911.73	236.71
912.03	236.72
912.33	236.79
912.64	236.74
912.94	236.70
913.24	236.72
913.55	236.64
913.85	236.64
914.15	236.75
914.46	236.81
914.76	236.83
915.06	236.79
915.37	236.77
915.67	236.80
915.97	236.80
916.27	236.77
916.58	236.77
916.88	236.81
917.18	236.78
917.49	236.96
917.79	236.93
918.09	236.98
918.39	237.06
918.70	237.04
919.00	237.06
919.30	237.14
919.60	237.14
919.91	237.17
920.21	237.13
920.51	237.01
920.81	236.97
921.12	236.93
921.42	236.99
921.72	236.94
922.02	236.92
922.32	236.94
922.63	236.91
922.93	237.00
923.23	236.95
923.53	236.90
923.83	236.69
924.13	236.75
924.44	236.72
924.74	236.75
925.04	236.79
925.34	236.79
925.64	236.70
925.94	236.64
926.24	236.74
926.55	236.73
926.85	236.75
927.15	236.78
927.45	236.80
927.75	236.68
928.05	236.69
928.35	236.66
928.65	236.69
928.95	236.71
929.26	236.62
929.56	236.68
929.86	236.72
930.16	236.75
930.46	236.70
930.76	236.78
931.06	236.63
931.36	236.58
931.66	236.64
931.96	236.67
932.26	236.72
932.56	236.66
932.86	236.72
933.16	236.71
933.46	236.72
933.76	236.67
934.06	236.76
934.36	236.86
934.66	236.87
934.96	236.81
935.26	236.80
935.56	236.84
935.86	236.73
936.16	236.72
936.46	236.69
936.76	236.64
937.06	236.53
937.36	236.59
937.66	236.56
937.96	236.50
938.26	236.48
938.56	236.44
938.86	236.47
939.16	236.50
939.46	236.53
939.76	236.51
940.06	236.57
940.35	236.48
940.65	236.35
940.95	236.40
941.25	236.37
941.55	236.35
941.85	236.30
942.15	236.43
942.45	236.43
942.75	236.37
943.04	236.41
943.34	236.48
943.64	236.47
943.94	236.46
944.24	236.45
944.54	236.43
944.84	236.40
945.13	236.30
945.43	236.25
945.73	236.22
946.03	236.23
946.33	236.17
946.62	236.20
946.92	236.21
947.22	236.19
947.52	236.20
947.82	236.25
948.11	236.23
948.41	236.16
948.71	236.15
949.01	236.19
949.31	236.14
949.60	236.14
949.90	236.20
950.20	236.23
950.50	236.21
950.79	236.19
951.09	236.26
951.39	236.31
951.69	236.31
951.98	236.37
952.28	236.41
952.58	236.38
952.87	236.37
953.17	236.37
953.47	236.31
953.76	236.29
954.06	236.28
954.36	236.30
954.66	236.34
954.95	236.39
955.25	236.37
955.55	236.43
955.84	236.39
956.14	236.34
956.44	236.35
956.73	236.36
957.03	236.44
957.32	236.44
957.62	236.43
957.92	236.47
958.21	236.44
958.51	236.68
958.81	236.69
959.10	236.69
959.40	236.75
959.69	236.81
959.99	236.90
960.29	236.91
960.58	236.88
960.88	236.90
961.17	236.88
961.47	236.91
961.76	236.92
962.06	236.96
962.36	237.00
962.65	237.00
962.95	237.03
963.24	236.96
963.54	236.96
963.83	236.95
964.13	236.94
964.42	236.82
964.72	236.58
965.01	236.60
965.31	236.64
965.60	236.60
965.90	236.67
966.19	236.59
966.49	236.60
966.78	236.62
967.08	236.61
967.37	236.61
967.67	236.59
967.96	236.59
968.26	236.56
968.55	236.54
968.85	236.53
969.14	236.56
969.43	236.60
969.73	236.57
970.02	236.56
970.32	236.53
970.61	236.56
970.91	236.52
971.20	236.52
971.49	236.47
971.79	236.43
972.08	236.34
972.38	236.37
972.67	236.33
972.96	236.37
973.26	236.31
973.55	236.38
973.85	236.33
974.14	236.29
974.43	236.33
974.73	236.30
975.02	236.29
975.31	236.24
975.61	236.24
975.90	236.20
976.19	236.16
976.49	236.24
976.78	236.32
977.07	236.32
977.37	236.35
977.66	236.37
977.95	236.39
978.24	236.44
978.54	236.40
978.83	236.39
979.12	236.30
979.42	236.33
979.71	236.28
980.00	236.33
980.29	236.36
980.59	236.29
980.88	236.30
981.17	236.24
981.46	236.22
981.76	236.20
982.05	236.37
982.34	236.42
982.63	236.42
982.93	236.38
983.22	236.44
983.51	236.44
983.80	236.48
984.09	236.51
984.39	236.41
984.68	236.45
984.97	236.45
985.26	236.46
985.55	236.43
985.85	236.40
986.14	236.39
986.43	236.40
986.72	236.36
987.01	236.30
987.30	236.30
987.59	236.30
987.89	236.25
988.18	236.10
988.47	236.07
988.76	235.99
989.05	235.91
989.34	235.92
989.63	235.90
989.92	235.84
990.22	235.77
990.51	235.83
990.80	235.85
991.09	235.88
991.38	235.94
991.67	235.95
991.96	235.89
992.25	235.89
992.54	235.90
992.83	235.94
993.12	235.96
993.41	236.04
993.70	236.16
993.99	236.28
994.28	236.30
994.58	236.33
994.87	236.31
995.16	236.36
995.45	236.29
995.74	236.26
996.03	236.40
996.32	236.47
996.61	236.47
996.90	236.42
997.19	236.43
997.48	236.43
997.77	236.43
998.06	236.46
998.34	236.47
998.63	236.42
998.92	236.43
999.21	236.46
999.50	236.45
999.79	236.36
1000.08	236.33
1000.37	236.34
1000.66	236.35
1000.95	236.42
1001.24	236.43
1001.53	236.48
1001.82	236.51
1002.11	236.42
1002.40	236.42
1002.68	236.50
1002.97	236.71
1003.26	236.65
1003.55	236.58
1003.84	236.55
1004.13	236.65
1004.42	236.64
1004.71	236.72
1004.99	236.73
1005.28	236.78
1005.57	236.79
1005.86	236.84
1006.15	236.78
1006.44	236.75
1006.72	236.76
1007.01	236.73
1007.30	236.73
1007.59	236.67
1007.88	236.62
1008.17	236.66
1008.45	236.59
1008.74	236.47
1009.03	236.31
1009.32	236.30
1009.60	236.27
1009.89	236.27
1010.18	236.17
1010.47	236.19
1010.76	236.10
1011.04	236.12
1011.33	236.07
1011.62	236.02
1011.91	236.03
1012.19	236.11
1012.48	236.13
1012.77	236.12
1013.05	236.17
1013.34	236.16
1013.63	236.18
1013.92	236.18
1014.20	236.11
1014.49	236.16
1014.78	236.18
1015.06	236.09
1015.35	236.11
1015.64	236.21
1015.92	236.25
1016.21	236.22
1016.50	236.18
1016.78	236.25
1017.07	236.20
1017.36	236.17
1017.64	236.21
1017.93	236.18
1018.22	236.08
1018.50	236.09
1018.79	236.11
1019.08	236.07
1019.36	236.09
1019.65	236.03
1019.93	236.12
1020.22	236.20
1020.51	236.37
1020.79	236.34
1021.08	235.33
1021.36	236.30
1021.65	236.47
1021.94	236.87
1022.22	236.20
1022.51	235.17
1022.79	236.93
1023.08	237.53
1023.36	240.10
1023.65	235.57
>>>>>End Processed Spectral Data<<<<<
