SpectraSuite Data File
++++++++++++++++++++++++++++++++++++
Date: Mon Oct 22 15:14:07 EDT 2012
User: group
Dark Spectrum Present: No
Reference Spectrum Present: No
Number of Sampled Component Spectra: 1
Spectrometers: USB2E7196
Integration Time (usec): 91000 (USB2E7196)
Spectra Averaged: 30 (USB2E7196)
Boxcar Smoothing: 10 (USB2E7196)
Correct for Electrical Dark: No (USB2E7196)
Strobe/Lamp Enabled: No (USB2E7196)
Correct for Detector Non-linearity: No (USB2E7196)
Correct for Stray Light: No (USB2E7196)
Number of Pixels in Processed Spectrum: 2048
>>>>>Begin Processed Spectral Data<<<<<
339.09	0.00
339.48	223.73
339.86	226.23
340.24	226.70
340.63	228.40
341.01	232.00
341.39	231.33
341.78	232.27
342.16	234.13
342.54	233.70
342.93	222.04
343.31	233.25
343.69	233.79
344.07	234.22
344.46	234.66
344.84	235.00
345.22	235.21
345.60	235.46
345.99	235.63
346.37	235.71
346.75	235.81
347.13	235.87
347.52	235.98
347.90	236.12
348.28	236.23
348.66	236.31
349.05	236.32
349.43	236.37
349.81	236.42
350.19	236.46
350.57	236.54
350.96	236.64
351.34	236.73
351.72	236.82
352.10	236.94
352.48	236.98
352.87	237.05
353.25	237.08
353.63	237.13
354.01	237.18
354.39	237.29
354.77	237.36
355.15	237.52
355.54	237.60
355.92	237.62
356.30	237.68
356.68	237.88
357.06	237.93
357.44	237.95
357.82	238.05
358.20	238.13
358.58	238.16
358.97	238.22
359.35	238.33
359.73	238.47
360.11	238.51
360.49	238.56
360.87	238.61
361.25	238.77
361.63	238.85
362.01	238.95
362.39	238.95
362.77	239.08
363.15	239.09
363.53	239.14
363.91	239.16
364.29	239.17
364.67	238.97
365.05	238.99
365.43	239.08
365.81	239.19
366.19	239.30
366.57	239.38
366.95	239.37
367.33	239.34
367.71	239.32
368.09	239.42
368.47	239.46
368.85	239.49
369.23	239.44
369.61	239.39
369.99	239.43
370.37	239.46
370.75	239.52
371.13	239.45
371.51	239.38
371.89	239.39
372.27	239.44
372.65	239.40
373.03	239.38
373.41	239.32
373.78	239.21
374.16	239.05
374.54	238.95
374.92	238.88
375.30	238.82
375.68	238.76
376.06	238.63
376.44	238.57
376.82	238.52
377.19	238.48
377.57	238.44
377.95	238.27
378.33	238.18
378.71	238.01
379.09	237.99
379.47	237.97
379.84	237.87
380.22	237.73
380.60	237.65
380.98	237.58
381.36	237.54
381.73	237.43
382.11	237.45
382.49	237.37
382.87	237.33
383.25	237.28
383.62	237.47
384.00	237.30
384.38	237.24
384.76	237.27
385.13	237.29
385.51	237.24
385.89	237.20
386.27	237.21
386.64	237.19
387.02	237.14
387.40	237.05
387.78	237.04
388.15	237.07
388.53	236.99
388.91	236.96
389.29	236.89
389.66	236.95
390.04	236.95
390.42	236.96
390.79	236.88
391.17	236.93
391.55	236.67
391.92	236.79
392.30	236.83
392.68	236.74
393.05	236.75
393.43	236.76
393.81	236.83
394.18	236.81
394.56	236.75
394.94	236.79
395.31	236.77
395.69	236.87
396.06	236.85
396.44	236.97
396.82	236.96
397.19	237.18
397.57	237.11
397.95	237.12
398.32	237.16
398.70	237.25
399.07	237.30
399.45	237.35
399.82	237.41
400.20	237.47
400.58	237.54
400.95	237.50
401.33	237.66
401.70	237.86
402.08	237.99
402.45	238.13
402.83	238.37
403.20	238.58
403.58	238.72
403.95	238.88
404.33	239.06
404.71	239.28
405.08	239.56
405.46	239.85
405.83	240.06
406.21	240.30
406.58	240.60
406.96	240.91
407.33	241.25
407.70	241.66
408.08	242.23
408.45	242.74
408.83	243.29
409.20	243.78
409.58	244.20
409.95	244.77
410.33	245.45
410.70	245.99
411.08	246.73
411.45	247.47
411.82	248.38
412.20	249.29
412.57	250.39
412.95	251.20
413.32	252.28
413.69	253.49
414.07	254.81
414.44	256.14
414.82	257.50
415.19	259.10
415.56	260.73
415.94	262.41
416.31	264.36
416.68	266.29
417.06	268.46
417.43	270.67
417.81	273.10
418.18	275.56
418.55	278.30
418.93	281.14
419.30	284.09
419.67	287.17
420.04	290.37
420.42	293.75
420.79	297.71
421.16	301.67
421.54	305.64
421.91	309.76
422.28	314.25
422.66	318.96
423.03	323.59
423.40	328.39
423.77	333.59
424.15	338.90
424.52	344.41
424.89	350.50
425.26	356.33
425.64	361.98
426.01	368.20
426.38	374.59
426.75	381.15
427.13	388.00
427.50	395.11
427.87	402.61
428.24	410.16
428.61	417.44
428.99	425.43
429.36	434.25
429.73	443.05
430.10	451.50
430.47	460.36
430.85	469.62
431.22	479.36
431.59	489.69
431.96	499.66
432.33	510.65
432.70	521.49
433.08	534.15
433.45	546.01
433.82	557.93
434.19	571.17
434.56	584.15
434.93	596.70
435.30	609.32
435.68	623.25
436.05	637.02
436.42	650.73
436.79	663.36
437.16	676.94
437.53	691.13
437.90	705.57
438.27	719.57
438.64	734.18
439.01	747.80
439.38	760.12
439.75	772.00
440.13	785.46
440.50	798.11
440.87	808.54
441.24	819.16
441.61	831.03
441.98	840.04
442.35	850.50
442.72	860.78
443.09	870.67
443.46	876.84
443.83	881.12
444.20	885.02
444.57	890.48
444.94	893.20
445.31	896.01
445.68	898.19
446.05	899.61
446.42	898.69
446.79	897.46
447.16	895.84
447.53	894.62
447.90	889.69
448.27	884.49
448.64	877.36
449.01	872.40
449.37	863.22
449.74	854.45
450.11	843.57
450.48	832.09
450.85	820.42
451.22	810.60
451.59	801.23
451.96	792.12
452.33	780.02
452.70	769.27
453.07	756.21
453.43	743.16
453.80	730.44
454.17	718.14
454.54	706.63
454.91	694.29
455.28	682.49
455.65	671.43
456.02	660.23
456.38	650.92
456.75	639.40
457.12	629.71
457.49	620.15
457.86	611.17
458.23	603.33
458.59	594.63
458.96	585.77
459.33	578.06
459.70	570.14
460.07	563.76
460.43	556.48
460.80	549.64
461.17	543.71
461.54	537.46
461.91	531.70
462.27	525.72
462.64	520.75
463.01	514.98
463.38	509.44
463.74	504.18
464.11	499.50
464.48	495.32
464.85	490.83
465.21	487.33
465.58	483.59
465.95	479.19
466.32	475.64
466.68	471.99
467.05	468.18
467.42	464.60
467.78	460.79
468.15	457.02
468.52	454.42
468.88	451.05
469.25	447.99
469.62	445.39
469.98	442.71
470.35	440.13
470.72	437.73
471.08	435.24
471.45	433.03
471.82	430.74
472.18	428.26
472.55	426.66
472.92	424.58
473.28	422.83
473.65	421.10
474.02	419.37
474.38	417.99
474.75	416.83
475.11	415.55
475.48	414.63
475.85	413.94
476.21	413.19
476.58	412.60
476.94	412.08
477.31	411.49
477.67	410.82
478.04	410.41
478.41	410.23
478.77	410.17
479.14	410.04
479.50	410.13
479.87	410.35
480.23	410.54
480.60	410.79
480.96	411.10
481.33	411.75
481.69	412.37
482.06	412.85
482.42	413.32
482.79	414.07
483.15	415.04
483.52	416.16
483.88	417.17
484.25	418.17
484.61	419.40
484.98	420.60
485.34	422.20
485.71	423.79
486.07	425.47
486.44	426.97
486.80	428.82
487.17	430.73
487.53	432.92
487.90	435.25
488.26	437.68
488.62	440.11
488.99	442.56
489.35	445.05
489.72	447.73
490.08	450.74
490.44	453.71
490.81	456.80
491.17	459.91
491.54	463.35
491.90	466.92
492.26	470.42
492.63	474.13
492.99	477.80
493.36	481.87
493.72	486.11
494.08	490.44
494.45	494.79
494.81	499.38
495.17	503.92
495.54	508.53
495.90	513.40
496.26	518.31
496.63	523.29
496.99	528.65
497.35	534.20
497.72	539.70
498.08	545.18
498.44	550.61
498.80	556.50
499.17	562.33
499.53	568.20
499.89	574.26
500.26	580.35
500.62	586.49
500.98	592.79
501.34	598.86
501.71	605.25
502.07	611.63
502.43	618.05
502.79	624.57
503.16	631.13
503.52	637.62
503.88	644.15
504.24	650.72
504.60	657.08
504.97	663.47
505.33	669.89
505.69	676.67
506.05	683.51
506.41	690.00
506.78	696.46
507.14	702.97
507.50	709.46
507.86	715.93
508.22	722.32
508.59	728.25
508.95	734.59
509.31	740.93
509.67	747.08
510.03	752.99
510.39	758.80
510.75	764.49
511.12	769.98
511.48	775.48
511.84	780.87
512.20	786.19
512.56	791.54
512.92	796.64
513.28	801.53
513.64	806.01
514.00	810.38
514.37	814.57
514.73	818.74
515.09	822.64
515.45	826.59
515.81	830.15
516.17	833.75
516.53	836.87
516.89	839.95
517.25	842.99
517.61	845.84
517.97	848.55
518.33	850.95
518.69	853.40
519.05	855.47
519.41	857.32
519.77	859.43
520.13	861.03
520.49	862.48
520.85	863.87
521.21	865.35
521.57	866.78
521.93	867.50
522.29	868.19
522.65	868.91
523.01	869.25
523.37	869.56
523.73	870.00
524.09	870.18
524.45	869.91
524.81	869.80
525.17	869.47
525.53	869.13
525.89	868.87
526.25	868.61
526.61	868.03
526.97	867.64
527.33	866.97
527.68	866.75
528.04	866.13
528.40	865.06
528.76	864.13
529.12	863.00
529.48	862.36
529.84	861.48
530.20	860.53
530.56	859.65
530.91	858.82
531.27	857.99
531.63	857.33
531.99	856.53
532.35	855.40
532.71	854.44
533.07	853.52
533.42	852.71
533.78	851.63
534.14	850.93
534.50	849.97
534.86	849.08
535.21	847.62
535.57	846.62
535.93	845.84
536.29	844.97
536.65	844.38
537.00	843.75
537.36	843.12
537.72	842.34
538.08	841.88
538.44	841.26
538.79	840.44
539.15	839.40
539.51	839.07
539.87	838.94
540.22	838.48
540.58	837.99
540.94	837.35
541.29	836.76
541.65	836.20
542.01	835.91
542.37	835.42
542.72	835.24
543.08	834.93
543.44	834.80
543.79	834.35
544.15	834.13
544.51	834.10
544.87	833.84
545.22	833.86
545.58	833.68
545.94	833.61
546.29	833.45
546.65	833.53
547.01	833.10
547.36	832.90
547.72	833.00
548.07	833.08
548.43	833.23
548.79	833.57
549.14	833.78
549.50	834.22
549.86	834.66
550.21	834.98
550.57	835.48
550.92	835.90
551.28	836.41
551.64	836.78
551.99	836.96
552.35	837.42
552.70	837.89
553.06	838.35
553.41	838.73
553.77	839.49
554.13	840.23
554.48	841.23
554.84	842.05
555.19	843.02
555.55	844.15
555.90	845.07
556.26	846.06
556.61	847.05
556.97	847.75
557.32	848.65
557.68	849.78
558.03	851.00
558.39	852.16
558.74	853.46
559.10	854.53
559.45	855.93
559.81	857.61
560.16	858.85
560.52	860.27
560.87	862.15
561.23	863.73
561.58	865.69
561.94	867.43
562.29	868.70
562.64	870.38
563.00	871.82
563.35	873.36
563.71	874.83
564.06	876.23
564.42	877.62
564.77	878.96
565.12	880.30
565.48	881.84
565.83	883.41
566.19	885.29
566.54	887.16
566.89	888.67
567.25	889.87
567.60	891.59
567.96	893.11
568.31	894.25
568.66	895.35
569.02	896.38
569.37	897.11
569.72	898.27
570.08	898.93
570.43	899.87
570.78	900.84
571.14	901.56
571.49	902.44
571.84	903.69
572.20	904.71
572.55	905.81
572.90	906.43
573.26	906.97
573.61	907.12
573.96	907.20
574.31	907.39
574.67	907.50
575.02	907.47
575.37	907.55
575.72	907.62
576.08	907.91
576.43	907.82
576.78	908.04
577.13	908.27
577.49	908.49
577.84	908.75
578.19	908.93
578.54	909.11
578.90	909.24
579.25	908.89
579.60	908.43
579.95	907.51
580.30	907.29
580.66	907.18
581.01	906.97
581.36	906.73
581.71	906.57
582.06	906.67
582.42	906.35
582.77	905.74
583.12	905.47
583.47	904.89
583.82	904.36
584.17	903.62
584.53	902.90
584.88	902.20
585.23	901.24
585.58	900.17
585.93	899.08
586.28	898.03
586.63	896.90
586.98	896.12
587.34	895.63
587.69	894.34
588.04	892.90
588.39	891.53
588.74	889.93
589.09	888.44
589.44	886.69
589.79	885.36
590.14	884.15
590.49	882.41
590.84	880.93
591.19	879.46
591.54	878.13
591.89	876.06
592.25	874.30
592.60	872.22
592.95	870.25
593.30	868.43
593.65	866.71
594.00	865.02
594.35	863.87
594.70	862.00
595.05	860.38
595.40	858.45
595.75	856.45
596.10	854.98
596.45	852.79
596.80	850.77
597.15	848.58
597.50	846.36
597.85	844.64
598.19	842.65
598.54	840.48
598.89	838.15
599.24	836.50
599.59	834.49
599.94	832.73
600.29	830.81
600.64	828.78
600.99	826.56
601.34	824.42
601.69	821.41
602.04	819.00
602.39	816.48
602.74	814.39
603.08	812.30
603.43	810.13
603.78	808.30
604.13	806.41
604.48	804.50
604.83	802.76
605.18	800.78
605.53	798.67
605.87	796.74
606.22	795.28
606.57	793.70
606.92	792.34
607.27	791.03
607.62	789.87
607.96	788.70
608.31	787.36
608.66	785.90
609.01	784.45
609.36	782.79
609.70	780.93
610.05	778.86
610.40	777.00
610.75	774.87
611.10	772.85
611.44	770.31
611.79	768.03
612.14	765.50
612.49	762.65
612.83	759.94
613.18	757.14
613.53	753.84
613.88	750.49
614.22	746.94
614.57	743.08
614.92	739.02
615.27	735.15
615.61	731.43
615.96	727.75
616.31	724.31
616.65	721.09
617.00	717.87
617.35	714.91
617.70	711.74
618.04	708.49
618.39	705.42
618.74	702.71
619.08	699.48
619.43	696.39
619.78	693.34
620.12	690.44
620.47	687.61
620.82	684.93
621.16	682.02
621.51	679.21
621.85	676.60
622.20	674.14
622.55	671.52
622.89	669.12
623.24	666.82
623.59	664.11
623.93	661.31
624.28	658.52
624.62	655.76
624.97	653.01
625.32	650.27
625.66	647.27
626.01	644.53
626.35	642.12
626.70	639.54
627.04	637.32
627.39	634.75
627.73	632.20
628.08	629.52
628.43	626.82
628.77	624.08
629.12	621.36
629.46	618.81
629.81	616.03
630.15	613.09
630.50	610.21
630.84	607.55
631.19	604.99
631.53	602.55
631.88	599.80
632.22	597.25
632.57	594.91
632.91	592.52
633.26	590.00
633.60	587.19
633.95	584.34
634.29	581.39
634.64	578.63
634.98	575.77
635.32	573.03
635.67	570.66
636.01	568.13
636.36	565.49
636.70	562.91
637.05	560.45
637.39	558.05
637.73	555.55
638.08	553.12
638.42	550.66
638.77	548.29
639.11	546.03
639.45	543.70
639.80	541.17
640.14	538.68
640.49	536.11
640.83	533.75
641.17	531.64
641.52	529.53
641.86	527.45
642.20	525.51
642.55	523.54
642.89	521.43
643.23	519.47
643.58	517.60
643.92	515.41
644.26	513.35
644.61	511.23
644.95	509.11
645.29	506.94
645.64	504.96
645.98	502.97
646.32	500.95
646.66	498.58
647.01	496.59
647.35	494.72
647.69	492.83
648.04	491.08
648.38	489.05
648.72	487.04
649.06	484.84
649.41	482.62
649.75	480.58
650.09	478.59
650.43	476.50
650.78	474.42
651.12	472.41
651.46	470.52
651.80	468.68
652.14	466.90
652.49	465.25
652.83	463.09
653.17	460.95
653.51	458.91
653.85	457.11
654.20	454.99
654.54	452.89
654.88	450.94
655.22	448.90
655.56	447.01
655.90	445.10
656.25	443.43
656.59	441.68
656.93	439.84
657.27	438.01
657.61	436.11
657.95	434.40
658.29	432.66
658.64	430.88
658.98	429.05
659.32	427.09
659.66	425.13
660.00	423.36
660.34	421.68
660.68	419.90
661.02	418.06
661.36	416.47
661.70	414.90
662.05	413.22
662.39	411.67
662.73	410.11
663.07	408.55
663.41	406.88
663.75	405.29
664.09	403.69
664.43	402.09
664.77	400.58
665.11	398.93
665.45	397.36
665.79	395.83
666.13	394.27
666.47	392.78
666.81	391.28
667.15	389.73
667.49	388.30
667.83	386.94
668.17	385.57
668.51	384.11
668.85	382.72
669.19	381.44
669.53	379.93
669.87	378.45
670.21	376.97
670.55	375.57
670.89	374.37
671.23	373.11
671.57	371.74
671.91	370.43
672.25	369.18
672.58	368.00
672.92	366.83
673.26	365.58
673.60	364.38
673.94	363.10
674.28	362.05
674.62	360.85
674.96	359.57
675.30	358.43
675.64	357.37
675.97	356.25
676.31	355.00
676.65	353.85
676.99	352.80
677.33	351.77
677.67	350.79
678.01	349.52
678.34	348.49
678.68	347.57
679.02	346.55
679.36	345.62
679.70	344.53
680.04	343.44
680.37	342.40
680.71	341.36
681.05	340.43
681.39	339.40
681.73	338.32
682.06	337.38
682.40	336.44
682.74	335.48
683.08	334.55
683.42	333.64
683.75	332.77
684.09	331.85
684.43	330.90
684.77	329.96
685.10	329.11
685.44	328.10
685.78	327.10
686.12	326.12
686.45	325.13
686.79	324.27
687.13	323.46
687.46	322.70
687.80	322.03
688.14	321.17
688.48	320.48
688.81	319.69
689.15	318.98
689.49	318.20
689.82	317.44
690.16	316.53
690.50	315.85
690.83	315.13
691.17	314.30
691.51	313.50
691.84	312.65
692.18	311.81
692.52	311.06
692.85	310.32
693.19	309.70
693.52	308.98
693.86	308.21
694.20	307.46
694.53	306.67
694.87	305.80
695.21	305.05
695.54	304.26
695.88	303.50
696.21	302.66
696.55	301.88
696.88	301.07
697.22	300.42
697.56	299.70
697.89	299.03
698.23	298.44
698.56	297.85
698.90	297.36
699.23	296.76
699.57	296.14
699.90	295.55
700.24	294.94
700.58	294.38
700.91	293.87
701.25	293.44
701.58	292.97
701.92	292.46
702.25	291.94
702.59	291.35
702.92	290.91
703.26	290.53
703.59	290.12
703.93	289.93
704.26	289.44
704.60	288.96
704.93	288.39
705.26	287.91
705.60	287.47
705.93	286.91
706.27	286.47
706.60	286.04
706.94	285.65
707.27	285.16
707.61	284.70
707.94	284.24
708.27	283.60
708.61	283.07
708.94	282.59
709.28	282.12
709.61	281.74
709.94	281.27
710.28	280.67
710.61	280.07
710.95	279.30
711.28	278.91
711.61	278.31
711.95	277.92
712.28	277.34
712.61	276.77
712.95	276.34
713.28	275.95
713.61	275.44
713.95	274.90
714.28	274.39
714.61	273.84
714.95	273.28
715.28	272.81
715.61	272.35
715.95	271.94
716.28	271.53
716.61	271.05
716.95	270.57
717.28	270.23
717.61	269.86
717.94	269.52
718.28	269.04
718.61	268.70
718.94	268.23
719.27	267.89
719.61	267.55
719.94	267.18
720.27	266.73
720.60	266.40
720.94	266.00
721.27	265.73
721.60	265.53
721.93	265.23
722.27	265.01
722.60	264.71
722.93	264.31
723.26	264.04
723.59	263.79
723.93	263.65
724.26	263.39
724.59	263.11
724.92	262.85
725.25	262.66
725.59	262.42
725.92	262.17
726.25	261.97
726.58	261.80
726.91	261.59
727.24	261.37
727.57	261.07
727.91	260.83
728.24	260.65
728.57	260.36
728.90	260.22
729.23	259.91
729.56	259.79
729.89	259.62
730.22	259.35
730.55	259.10
730.89	258.81
731.22	258.59
731.55	258.43
731.88	258.28
732.21	258.00
732.54	257.80
732.87	257.63
733.20	257.41
733.53	257.20
733.86	257.02
734.19	256.74
734.52	256.65
734.85	256.64
735.18	256.39
735.51	256.24
735.84	256.06
736.17	255.98
736.50	255.73
736.83	255.79
737.16	255.64
737.49	255.42
737.82	255.29
738.15	255.16
738.48	254.95
738.81	254.70
739.14	254.57
739.47	254.40
739.80	254.26
740.13	254.10
740.46	253.89
740.79	253.65
741.12	253.57
741.45	253.32
741.78	253.03
742.11	252.93
742.44	252.72
742.77	252.57
743.10	252.35
743.43	252.16
743.75	251.82
744.08	251.92
744.41	251.76
744.74	251.53
745.07	251.31
745.40	251.21
745.73	251.13
746.06	250.90
746.39	250.74
746.71	250.57
747.04	250.41
747.37	250.24
747.70	250.12
748.03	249.98
748.36	249.87
748.68	249.77
749.01	249.55
749.34	249.41
749.67	249.30
750.00	249.18
750.33	249.26
750.65	249.12
750.98	248.68
751.31	248.59
751.64	248.53
751.97	248.49
752.29	248.34
752.62	248.14
752.95	248.05
753.28	247.93
753.60	247.81
753.93	247.76
754.26	247.59
754.59	247.41
754.91	247.23
755.24	247.10
755.57	246.90
755.90	246.73
756.22	246.62
756.55	246.43
756.88	246.33
757.20	246.00
757.53	245.82
757.86	245.78
758.19	245.70
758.51	245.55
758.84	245.36
759.17	245.26
759.49	245.17
759.82	245.17
760.15	245.07
760.47	244.95
760.80	244.76
761.13	244.83
761.45	244.81
761.78	244.73
762.11	244.64
762.43	244.54
762.76	244.48
763.08	244.41
763.41	244.37
763.74	244.28
764.06	244.19
764.39	244.11
764.71	243.98
765.04	243.87
765.37	243.77
765.69	243.69
766.02	243.61
766.34	243.52
766.67	243.36
767.00	243.32
767.32	243.38
767.65	243.41
767.97	243.22
768.30	243.10
768.62	243.00
768.95	242.93
769.27	242.86
769.60	242.84
769.92	242.76
770.25	242.57
770.57	242.42
770.90	242.33
771.22	242.28
771.55	242.21
771.87	242.15
772.20	242.08
772.52	242.19
772.85	242.39
773.17	242.34
773.50	242.26
773.82	242.20
774.15	241.99
774.47	241.83
774.80	241.82
775.12	241.76
775.45	241.77
775.77	241.68
776.09	241.67
776.42	241.63
776.74	241.64
777.07	241.59
777.39	241.60
777.72	241.60
778.04	241.53
778.36	241.52
778.69	241.49
779.01	241.41
779.33	241.19
779.66	240.89
779.98	240.80
780.31	240.73
780.63	240.73
780.95	240.75
781.28	240.71
781.60	240.66
781.92	240.63
782.25	240.53
782.57	240.50
782.89	240.44
783.22	240.37
783.54	240.27
783.86	240.27
784.19	240.24
784.51	240.23
784.83	240.24
785.16	240.16
785.48	240.13
785.80	240.16
786.12	240.07
786.45	240.01
786.77	240.02
787.09	240.03
787.42	239.97
787.74	239.93
788.06	239.88
788.38	239.82
788.71	239.73
789.03	239.73
789.35	239.79
789.67	239.75
789.99	239.78
790.32	239.74
790.64	239.78
790.96	239.90
791.28	239.87
791.61	239.80
791.93	239.81
792.25	239.79
792.57	239.90
792.89	239.85
793.21	239.88
793.54	239.88
793.86	239.79
794.18	239.78
794.50	239.70
794.82	239.71
795.14	239.73
795.47	239.74
795.79	239.74
796.11	239.60
796.43	239.52
796.75	239.45
797.07	239.42
797.39	239.36
797.71	239.23
798.04	239.07
798.36	239.08
798.68	239.04
799.00	239.02
799.32	238.91
799.64	238.97
799.96	238.93
800.28	238.93
800.60	238.95
800.92	238.95
801.24	238.94
801.56	238.93
801.89	238.86
802.21	238.88
802.53	238.84
802.85	238.90
803.17	239.07
803.49	239.02
803.81	238.99
804.13	238.98
804.45	238.87
804.77	238.96
805.09	238.92
805.41	238.89
805.73	238.82
806.05	238.74
806.37	238.76
806.69	238.75
807.01	238.69
807.33	238.69
807.65	238.56
807.97	238.65
808.28	238.60
808.60	238.65
808.92	238.63
809.24	238.70
809.56	238.66
809.88	238.59
810.20	238.62
810.52	238.67
810.84	238.64
811.16	238.64
811.48	238.61
811.80	238.67
812.12	238.65
812.43	238.69
812.75	238.60
813.07	238.53
813.39	238.47
813.71	238.46
814.03	238.38
814.35	238.35
814.67	238.21
814.98	238.17
815.30	238.15
815.62	238.02
815.94	237.91
816.26	237.90
816.58	237.81
816.89	237.78
817.21	237.68
817.53	237.67
817.85	237.65
818.17	237.63
818.48	237.50
818.80	237.52
819.12	237.52
819.44	237.54
819.76	237.52
820.07	237.54
820.39	237.47
820.71	237.50
821.03	237.53
821.34	237.53
821.66	237.52
821.98	237.48
822.30	237.52
822.61	237.61
822.93	237.56
823.25	237.50
823.57	237.47
823.88	237.52
824.20	237.50
824.52	237.53
824.83	237.46
825.15	237.48
825.47	237.44
825.79	237.35
826.10	237.30
826.42	237.28
826.74	237.30
827.05	237.34
827.37	237.31
827.69	237.25
828.00	237.27
828.32	237.29
828.64	237.28
828.95	237.39
829.27	237.33
829.58	237.33
829.90	237.35
830.22	237.36
830.53	237.24
830.85	237.22
831.17	237.12
831.48	237.14
831.80	237.12
832.11	237.14
832.43	237.17
832.75	237.22
833.06	237.34
833.38	237.23
833.69	237.21
834.01	237.21
834.32	237.22
834.64	237.15
834.96	237.16
835.27	237.13
835.59	237.04
835.90	236.98
836.22	236.95
836.53	236.97
836.85	236.96
837.16	237.20
837.48	237.21
837.79	237.30
838.11	237.30
838.42	237.28
838.74	237.32
839.05	237.24
839.37	237.17
839.68	237.03
840.00	237.05
840.31	237.05
840.63	237.04
840.94	237.03
841.26	237.00
841.57	236.95
841.88	236.95
842.20	236.92
842.51	236.87
842.83	236.90
843.14	237.00
843.46	236.97
843.77	236.90
844.08	236.89
844.40	236.83
844.71	236.85
845.03	236.81
845.34	236.73
845.65	236.75
845.97	236.82
846.28	236.84
846.60	236.80
846.91	236.81
847.22	236.83
847.54	236.86
847.85	236.90
848.16	236.89
848.48	236.91
848.79	236.94
849.10	236.96
849.42	236.91
849.73	236.76
850.04	236.77
850.36	236.68
850.67	236.67
850.98	236.64
851.30	236.61
851.61	236.62
851.92	236.63
852.23	236.71
852.55	236.68
852.86	236.66
853.17	236.71
853.49	236.71
853.80	236.73
854.11	236.69
854.42	236.68
854.74	236.62
855.05	236.60
855.36	236.54
855.67	236.64
855.99	236.68
856.30	236.88
856.61	236.87
856.92	236.79
857.23	236.75
857.55	236.74
857.86	236.72
858.17	236.72
858.48	236.68
858.79	236.63
859.11	236.64
859.42	236.62
859.73	236.60
860.04	236.54
860.35	236.43
860.66	236.38
860.98	236.39
861.29	236.45
861.60	236.42
861.91	236.42
862.22	236.32
862.53	236.27
862.84	236.09
863.16	236.07
863.47	236.05
863.78	236.06
864.09	236.09
864.40	236.12
864.71	236.15
865.02	236.13
865.33	236.14
865.64	236.10
865.95	236.15
866.27	236.27
866.58	236.27
866.89	236.28
867.20	236.29
867.51	236.22
867.82	236.23
868.13	236.25
868.44	236.27
868.75	236.34
869.06	236.40
869.37	236.37
869.68	236.37
869.99	236.40
870.30	236.45
870.61	236.45
870.92	236.42
871.23	236.41
871.54	236.49
871.85	236.47
872.16	236.47
872.47	236.42
872.78	236.27
873.09	236.38
873.40	236.41
873.71	236.43
874.02	236.46
874.33	236.42
874.64	236.39
874.95	236.45
875.26	236.40
875.56	236.37
875.87	236.37
876.18	236.39
876.49	236.66
876.80	236.66
877.11	236.68
877.42	236.66
877.73	236.66
878.04	236.63
878.35	236.63
878.66	236.67
878.96	236.68
879.27	236.67
879.58	236.61
879.89	236.63
880.20	236.63
880.51	236.63
880.82	236.62
881.12	236.70
881.43	236.64
881.74	236.61
882.05	236.66
882.36	236.69
882.67	236.70
882.97	236.43
883.28	236.36
883.59	236.33
883.90	236.39
884.21	236.46
884.51	236.47
884.82	236.51
885.13	236.57
885.44	236.56
885.74	236.62
886.05	236.70
886.36	236.65
886.67	236.66
886.98	236.82
887.28	236.91
887.59	236.92
887.90	236.98
888.20	237.03
888.51	237.13
888.82	237.13
889.13	237.16
889.43	237.40
889.74	237.48
890.05	237.51
890.35	237.50
890.66	237.46
890.97	237.46
891.28	237.40
891.58	237.40
891.89	237.42
892.20	237.40
892.50	237.35
892.81	237.39
893.12	237.42
893.42	237.33
893.73	237.27
894.04	237.24
894.34	237.19
894.65	237.18
894.95	237.10
895.26	237.14
895.57	237.20
895.87	236.96
896.18	236.98
896.48	236.94
896.79	236.97
897.10	236.99
897.40	237.00
897.71	237.06
898.01	237.02
898.32	237.09
898.63	237.12
898.93	237.16
899.24	237.13
899.54	237.06
899.85	237.01
900.15	237.02
900.46	237.03
900.76	237.08
901.07	237.06
901.38	237.03
901.68	236.98
901.99	236.94
902.29	236.95
902.60	236.92
902.90	236.90
903.21	236.86
903.51	236.84
903.82	236.89
904.12	236.88
904.43	236.86
904.73	236.83
905.03	236.82
905.34	237.00
905.64	236.95
905.95	237.00
906.25	237.02
906.56	237.00
906.86	237.00
907.17	236.93
907.47	236.93
907.77	236.91
908.08	236.94
908.38	236.96
908.69	237.01
908.99	237.07
909.30	237.13
909.60	237.12
909.90	237.11
910.21	236.99
910.51	236.96
910.81	236.94
911.12	236.89
911.42	236.87
911.73	236.64
912.03	236.69
912.33	236.76
912.64	236.72
912.94	236.74
913.24	236.71
913.55	236.63
913.85	236.66
914.15	236.69
914.46	236.66
914.76	236.58
915.06	236.45
915.37	236.37
915.67	236.34
915.97	236.35
916.27	236.34
916.58	236.39
916.88	236.37
917.18	236.38
917.49	236.55
917.79	236.50
918.09	236.53
918.39	236.61
918.70	236.55
919.00	236.58
919.30	236.58
919.60	236.53
919.91	236.57
920.21	236.53
920.51	236.48
920.81	236.50
921.12	236.54
921.42	236.62
921.72	236.64
922.02	236.63
922.32	236.66
922.63	236.70
922.93	236.82
923.23	236.87
923.53	236.91
923.83	236.75
924.13	236.78
924.44	236.76
924.74	236.80
925.04	236.81
925.34	236.77
925.64	236.78
925.94	236.82
926.24	237.02
926.55	236.96
926.85	236.99
927.15	236.96
927.45	236.93
927.75	236.90
928.05	236.88
928.35	236.89
928.65	236.89
928.95	236.83
929.26	236.73
929.56	236.73
929.86	236.72
930.16	236.73
930.46	236.70
930.76	236.74
931.06	236.61
931.36	236.58
931.66	236.68
931.96	236.65
932.26	236.69
932.56	236.56
932.86	236.64
933.16	236.66
933.46	236.60
933.76	236.59
934.06	236.59
934.36	236.65
934.66	236.61
934.96	236.57
935.26	236.59
935.56	236.54
935.86	236.49
936.16	236.47
936.46	236.42
936.76	236.41
937.06	236.32
937.36	236.32
937.66	236.38
937.96	236.33
938.26	236.31
938.56	236.26
938.86	236.28
939.16	236.31
939.46	236.28
939.76	236.33
940.06	236.30
940.35	236.33
940.65	236.23
940.95	236.25
941.25	236.22
941.55	236.20
941.85	236.25
942.15	236.31
942.45	236.35
942.75	236.37
943.04	236.40
943.34	236.44
943.64	236.40
943.94	236.34
944.24	236.31
944.54	236.29
944.84	236.31
945.13	236.21
945.43	236.18
945.73	236.18
946.03	236.20
946.33	236.23
946.62	236.19
946.92	236.23
947.22	236.20
947.52	236.26
947.82	236.26
948.11	236.22
948.41	236.20
948.71	236.12
949.01	236.13
949.31	236.10
949.60	236.07
949.90	236.14
950.20	236.12
950.50	236.13
950.79	236.14
951.09	236.17
951.39	236.19
951.69	236.19
951.98	236.24
952.28	236.19
952.58	236.19
952.87	236.18
953.17	236.21
953.47	236.20
953.76	236.12
954.06	236.10
954.36	236.08
954.66	236.00
954.95	236.06
955.25	236.05
955.55	236.05
955.84	236.10
956.14	236.08
956.44	236.11
956.73	236.06
957.03	236.04
957.32	236.02
957.62	236.04
957.92	236.04
958.21	236.03
958.51	236.28
958.81	236.32
959.10	236.40
959.40	236.39
959.69	236.40
959.99	236.51
960.29	236.51
960.58	236.51
960.88	236.65
961.17	236.64
961.47	236.67
961.76	236.70
962.06	236.65
962.36	236.63
962.65	236.58
962.95	236.67
963.24	236.67
963.54	236.72
963.83	236.71
964.13	236.71
964.42	236.62
964.72	236.44
965.01	236.42
965.31	236.36
965.60	236.35
965.90	236.51
966.19	236.46
966.49	236.49
966.78	236.47
967.08	236.43
967.37	236.46
967.67	236.39
967.96	236.46
968.26	236.48
968.55	236.56
968.85	236.62
969.14	236.57
969.43	236.57
969.73	236.54
970.02	236.54
970.32	236.55
970.61	236.56
970.91	236.52
971.20	236.45
971.49	236.43
971.79	236.46
972.08	236.31
972.38	236.31
972.67	236.27
972.96	236.32
973.26	236.25
973.55	236.31
973.85	236.36
974.14	236.29
974.43	236.30
974.73	236.18
975.02	236.13
975.31	236.09
975.61	236.05
975.90	235.98
976.19	235.95
976.49	235.94
976.78	236.00
977.07	236.01
977.37	236.02
977.66	236.00
977.95	235.92
978.24	235.90
978.54	235.95
978.83	235.98
979.12	235.95
979.42	235.93
979.71	235.88
980.00	235.82
980.29	235.85
980.59	235.79
980.88	235.89
981.17	235.90
981.46	235.93
981.76	235.97
982.05	236.02
982.34	236.06
982.63	236.06
982.93	236.04
983.22	236.07
983.51	236.07
983.80	236.18
984.09	236.27
984.39	236.26
984.68	236.21
984.97	236.20
985.26	236.21
985.55	236.24
985.85	236.20
986.14	236.23
986.43	236.22
986.72	236.26
987.01	236.21
987.30	236.21
987.59	236.22
987.89	236.21
988.18	236.14
988.47	236.12
988.76	236.06
989.05	236.01
989.34	235.99
989.63	236.10
989.92	236.02
990.22	235.99
990.51	236.03
990.80	236.02
991.09	236.03
991.38	236.04
991.67	236.03
991.96	235.99
992.25	235.97
992.54	235.98
992.83	236.01
993.12	235.98
993.41	236.01
993.70	236.11
993.99	236.20
994.28	236.24
994.58	236.29
994.87	236.31
995.16	236.32
995.45	236.33
995.74	236.29
996.03	236.35
996.32	236.36
996.61	236.41
996.90	236.38
997.19	236.36
997.48	236.34
997.77	236.36
998.06	236.36
998.34	236.36
998.63	236.35
998.92	236.31
999.21	236.37
999.50	236.36
999.79	236.32
1000.08	236.25
1000.37	236.27
1000.66	236.27
1000.95	236.30
1001.24	236.32
1001.53	236.33
1001.82	236.27
1002.11	236.19
1002.40	236.25
1002.68	236.29
1002.97	236.47
1003.26	236.42
1003.55	236.43
1003.84	236.38
1004.13	236.49
1004.42	236.49
1004.71	236.46
1004.99	236.48
1005.28	236.51
1005.57	236.52
1005.86	236.47
1006.15	236.43
1006.44	236.41
1006.72	236.41
1007.01	236.37
1007.30	236.39
1007.59	236.44
1007.88	236.44
1008.17	236.50
1008.45	236.40
1008.74	236.33
1009.03	236.22
1009.32	236.24
1009.60	236.19
1009.89	236.21
1010.18	236.13
1010.47	236.13
1010.76	236.17
1011.04	236.20
1011.33	236.12
1011.62	236.08
1011.91	236.07
1012.19	236.13
1012.48	236.14
1012.77	236.11
1013.05	236.24
1013.34	236.21
1013.63	236.16
1013.92	236.17
1014.20	236.13
1014.49	236.17
1014.78	236.13
1015.06	236.08
1015.35	236.08
1015.64	236.17
1015.92	236.22
1016.21	236.20
1016.50	236.24
1016.78	236.23
1017.07	236.20
1017.36	236.21
1017.64	236.20
1017.93	236.26
1018.22	236.25
1018.50	236.22
1018.79	236.20
1019.08	236.05
1019.36	236.07
1019.65	235.98
1019.93	236.08
1020.22	236.12
1020.51	236.21
1020.79	236.18
1021.08	236.03
1021.36	235.63
1021.65	235.63
1021.94	235.37
1022.22	236.03
1022.51	234.97
1022.79	237.97
1023.08	236.27
1023.36	238.77
1023.65	234.93
>>>>>End Processed Spectral Data<<<<<
