SpectraSuite Data File
++++++++++++++++++++++++++++++++++++
Date: Mon Oct 22 15:13:50 EDT 2012
User: group
Dark Spectrum Present: No
Reference Spectrum Present: No
Number of Sampled Component Spectra: 1
Spectrometers: USB2E7196
Integration Time (usec): 91000 (USB2E7196)
Spectra Averaged: 30 (USB2E7196)
Boxcar Smoothing: 10 (USB2E7196)
Correct for Electrical Dark: No (USB2E7196)
Strobe/Lamp Enabled: No (USB2E7196)
Correct for Detector Non-linearity: No (USB2E7196)
Correct for Stray Light: No (USB2E7196)
Number of Pixels in Processed Spectrum: 2048
>>>>>Begin Processed Spectral Data<<<<<
339.09	0.00
339.48	224.00
339.86	226.60
340.24	225.70
340.63	228.53
341.01	232.87
341.39	231.53
341.78	232.67
342.16	233.93
342.54	233.80
342.93	222.32
343.31	233.51
343.69	234.02
344.07	234.42
344.46	234.88
344.84	235.28
345.22	235.46
345.60	235.70
345.99	235.89
346.37	236.04
346.75	236.20
347.13	236.30
347.52	236.39
347.90	236.52
348.28	236.61
348.66	236.67
349.05	236.63
349.43	236.69
349.81	236.70
350.19	236.70
350.57	236.76
350.96	236.85
351.34	236.98
351.72	237.14
352.10	237.22
352.48	237.33
352.87	237.35
353.25	237.41
353.63	237.47
354.01	237.50
354.39	237.58
354.77	237.61
355.15	237.73
355.54	237.75
355.92	237.69
356.30	237.76
356.68	237.99
357.06	238.09
357.44	238.08
357.82	238.19
358.20	238.26
358.58	238.37
358.97	238.43
359.35	238.54
359.73	238.65
360.11	238.77
360.49	238.84
360.87	238.93
361.25	238.99
361.63	239.13
362.01	239.27
362.39	239.24
362.77	239.35
363.15	239.37
363.53	239.42
363.91	239.51
364.29	239.55
364.67	239.40
365.05	239.47
365.43	239.52
365.81	239.56
366.19	239.69
366.57	239.77
366.95	239.74
367.33	239.68
367.71	239.63
368.09	239.68
368.47	239.64
368.85	239.57
369.23	239.60
369.61	239.51
369.99	239.56
370.37	239.61
370.75	239.64
371.13	239.62
371.51	239.53
371.89	239.50
372.27	239.51
372.65	239.41
373.03	239.23
373.41	239.17
373.78	239.13
374.16	238.96
374.54	238.78
374.92	238.72
375.30	238.67
375.68	238.57
376.06	238.48
376.44	238.43
376.82	238.40
377.19	238.29
377.57	238.22
377.95	238.04
378.33	237.89
378.71	237.71
379.09	237.63
379.47	237.63
379.84	237.55
380.22	237.43
380.60	237.41
380.98	237.42
381.36	237.42
381.73	237.28
382.11	237.23
382.49	237.25
382.87	237.20
383.25	237.10
383.62	237.32
384.00	237.21
384.38	237.18
384.76	237.23
385.13	237.27
385.51	237.28
385.89	237.25
386.27	237.26
386.64	237.22
387.02	237.15
387.40	237.05
387.78	237.05
388.15	237.02
388.53	236.98
388.91	236.95
389.29	236.89
389.66	236.89
390.04	236.88
390.42	236.92
390.79	236.92
391.17	236.92
391.55	236.72
391.92	236.75
392.30	236.76
392.68	236.66
393.05	236.63
393.43	236.57
393.81	236.52
394.18	236.49
394.56	236.53
394.94	236.62
395.31	236.62
395.69	236.72
396.06	236.82
396.44	236.86
396.82	236.91
397.19	237.06
397.57	237.12
397.95	237.25
398.32	237.24
398.70	237.28
399.07	237.44
399.45	237.45
399.82	237.48
400.20	237.54
400.58	237.66
400.95	237.74
401.33	237.88
401.70	238.19
402.08	238.33
402.45	238.45
402.83	238.60
403.20	238.82
403.58	238.92
403.95	239.05
404.33	239.23
404.71	239.43
405.08	239.67
405.46	239.89
405.83	240.10
406.21	240.31
406.58	240.65
406.96	240.95
407.33	241.33
407.70	241.76
408.08	242.32
408.45	242.78
408.83	243.28
409.20	243.82
409.58	244.22
409.95	244.85
410.33	245.51
410.70	246.14
411.08	246.87
411.45	247.64
411.82	248.41
412.20	249.30
412.57	250.39
412.95	251.28
413.32	252.35
413.69	253.45
414.07	254.68
414.44	256.05
414.82	257.44
415.19	259.02
415.56	260.66
415.94	262.34
416.31	264.20
416.68	266.13
417.06	268.37
417.43	270.53
417.81	272.92
418.18	275.47
418.55	278.15
418.93	281.02
419.30	283.96
419.67	287.12
420.04	290.37
420.42	293.83
420.79	297.69
421.16	301.66
421.54	305.79
421.91	310.07
422.28	314.42
422.66	319.04
423.03	323.68
423.40	328.50
423.77	333.68
424.15	339.18
424.52	344.70
424.89	350.72
425.26	356.56
425.64	362.17
426.01	368.30
426.38	374.84
426.75	381.34
427.13	388.27
427.50	395.51
427.87	403.04
428.24	410.50
428.61	417.87
428.99	425.91
429.36	434.66
429.73	443.31
430.10	451.97
430.47	460.99
430.85	470.34
431.22	480.16
431.59	490.55
431.96	500.52
432.33	511.64
432.70	522.45
433.08	535.09
433.45	547.17
433.82	559.10
434.19	572.24
434.56	585.29
434.93	597.71
435.30	610.30
435.68	624.30
436.05	638.06
436.42	651.93
436.79	664.67
437.16	678.33
437.53	692.72
437.90	707.20
438.27	721.26
438.64	735.86
439.01	749.56
439.38	762.05
439.75	773.88
440.13	787.31
440.50	799.88
440.87	810.50
441.24	821.38
441.61	833.25
441.98	842.27
442.35	852.73
442.72	863.36
443.09	873.47
443.46	879.77
443.83	884.05
444.20	887.86
444.57	893.09
444.94	895.81
445.31	898.51
445.68	900.81
446.05	902.10
446.42	901.23
446.79	899.95
447.16	898.19
447.53	897.08
447.90	892.21
448.27	887.17
448.64	879.90
449.01	874.63
449.37	865.50
449.74	856.70
450.11	845.87
450.48	834.20
450.85	822.37
451.22	812.19
451.59	802.79
451.96	793.81
452.33	781.84
452.70	770.93
453.07	757.88
453.43	744.64
453.80	731.91
454.17	719.56
454.54	707.84
454.91	695.54
455.28	683.50
455.65	672.24
456.02	660.97
456.38	651.75
456.75	640.10
457.12	630.53
457.49	620.98
457.86	611.97
458.23	604.06
458.59	595.31
458.96	586.65
459.33	579.02
459.70	571.08
460.07	564.65
460.43	557.39
460.80	550.59
461.17	544.54
461.54	538.25
461.91	532.40
462.27	526.51
462.64	521.37
463.01	515.64
463.38	510.24
463.74	504.99
464.11	500.19
464.48	495.94
464.85	491.24
465.21	487.76
465.58	484.05
465.95	479.59
466.32	476.00
466.68	472.23
467.05	468.39
467.42	464.69
467.78	460.87
468.15	457.21
468.52	454.68
468.88	451.36
469.25	448.28
469.62	445.75
469.98	443.07
470.35	440.55
470.72	438.18
471.08	435.58
471.45	433.45
471.82	431.14
472.18	428.80
472.55	427.19
472.92	425.14
473.28	423.32
473.65	421.64
474.02	419.91
474.38	418.47
474.75	417.32
475.11	416.07
475.48	415.21
475.85	414.46
476.21	413.60
476.58	412.95
476.94	412.58
477.31	411.88
477.67	411.25
478.04	410.84
478.41	410.82
478.77	410.84
479.14	410.54
479.50	410.68
479.87	410.97
480.23	411.26
480.60	411.37
480.96	411.65
481.33	412.25
481.69	412.85
482.06	413.43
482.42	413.91
482.79	414.47
483.15	415.41
483.52	416.61
483.88	417.66
484.25	418.69
484.61	419.76
484.98	421.07
485.34	422.64
485.71	424.26
486.07	425.89
486.44	427.44
486.80	429.38
487.17	431.36
487.53	433.50
487.90	435.73
488.26	438.29
488.62	440.81
488.99	443.27
489.35	445.81
489.72	448.60
490.08	451.75
490.44	454.75
490.81	457.79
491.17	460.89
491.54	464.35
491.90	467.96
492.26	471.68
492.63	475.45
492.99	479.34
493.36	483.29
493.72	487.53
494.08	491.89
494.45	496.23
494.81	500.64
495.17	505.14
495.54	509.89
495.90	514.83
496.26	519.72
496.63	524.72
496.99	530.06
497.35	535.48
497.72	540.97
498.08	546.71
498.44	552.34
498.80	558.22
499.17	563.90
499.53	569.69
499.89	575.68
500.26	581.66
500.62	587.69
500.98	594.06
501.34	600.28
501.71	606.73
502.07	613.17
502.43	619.70
502.79	626.31
503.16	632.90
503.52	639.46
503.88	646.02
504.24	652.60
504.60	659.04
504.97	665.53
505.33	671.83
505.69	678.49
506.05	685.32
506.41	691.98
506.78	698.48
507.14	705.05
507.50	711.55
507.86	718.09
508.22	724.59
508.59	730.66
508.95	736.91
509.31	743.20
509.67	749.37
510.03	755.29
510.39	761.10
510.75	766.77
511.12	772.22
511.48	777.72
511.84	783.33
512.20	788.49
512.56	793.82
512.92	798.90
513.28	803.80
513.64	808.18
514.00	812.42
514.37	816.83
514.73	820.99
515.09	824.88
515.45	828.77
515.81	832.28
516.17	835.90
516.53	839.28
516.89	842.38
517.25	845.37
517.61	848.44
517.97	851.11
518.33	853.58
518.69	855.97
519.05	858.21
519.41	860.03
519.77	862.18
520.13	863.94
520.49	865.57
520.85	866.92
521.21	868.31
521.57	869.79
521.93	870.63
522.29	871.44
522.65	872.16
523.01	872.72
523.37	873.19
523.73	873.70
524.09	873.76
524.45	873.63
524.81	873.52
525.17	873.19
525.53	872.95
525.89	872.67
526.25	872.42
526.61	871.86
526.97	871.37
527.33	870.95
527.68	870.59
528.04	869.95
528.40	869.05
528.76	868.25
529.12	867.34
529.48	866.57
529.84	865.57
530.20	864.83
530.56	863.70
530.91	862.71
531.27	861.62
531.63	860.76
531.99	859.95
532.35	858.87
532.71	857.74
533.07	856.86
533.42	855.90
533.78	854.71
534.14	853.90
534.50	853.00
534.86	852.19
535.21	850.84
535.57	849.79
535.93	848.72
536.29	847.91
536.65	847.11
537.00	846.47
537.36	845.87
537.72	844.92
538.08	844.67
538.44	844.15
538.79	843.45
539.15	842.78
539.51	842.41
539.87	842.32
540.22	841.80
540.58	841.47
540.94	841.13
541.29	840.83
541.65	840.29
542.01	839.98
542.37	839.58
542.72	839.26
543.08	838.85
543.44	838.79
543.79	838.36
544.15	838.09
544.51	838.04
544.87	838.14
545.22	838.17
545.58	837.92
545.94	837.77
546.29	837.66
546.65	837.26
547.01	836.72
547.36	836.46
547.72	836.37
548.07	836.14
548.43	836.05
548.79	836.05
549.14	836.21
549.50	836.50
549.86	836.53
550.21	836.92
550.57	837.46
550.92	837.80
551.28	838.38
551.64	838.62
551.99	838.78
552.35	839.07
552.70	839.42
553.06	839.69
553.41	840.04
553.77	840.64
554.13	841.61
554.48	842.41
554.84	843.15
555.19	844.33
555.55	845.51
555.90	846.44
556.26	847.53
556.61	848.42
556.97	849.10
557.32	850.09
557.68	851.07
558.03	852.19
558.39	853.33
558.74	854.49
559.10	855.74
559.45	856.87
559.81	858.25
560.16	859.47
560.52	860.88
560.87	862.65
561.23	864.23
561.58	866.17
561.94	867.83
562.29	869.20
562.64	870.81
563.00	872.19
563.35	873.61
563.71	874.98
564.06	876.46
564.42	877.77
564.77	878.92
565.12	880.23
565.48	881.94
565.83	883.57
566.19	885.42
566.54	887.15
566.89	888.80
567.25	890.08
567.60	891.74
567.96	893.35
568.31	894.53
568.66	895.75
569.02	896.52
569.37	897.41
569.72	898.58
570.08	899.23
570.43	900.02
570.78	901.11
571.14	902.02
571.49	902.83
571.84	903.99
572.20	905.18
572.55	906.48
572.90	906.97
573.26	907.71
573.61	907.67
573.96	907.66
574.31	907.80
574.67	907.90
575.02	907.99
575.37	908.17
575.72	908.28
576.08	908.42
576.43	908.42
576.78	908.50
577.13	908.65
577.49	908.88
577.84	909.35
578.19	909.50
578.54	909.64
578.90	909.92
579.25	909.69
579.60	909.33
579.95	908.40
580.30	908.23
580.66	908.00
581.01	908.01
581.36	907.95
581.71	907.89
582.06	908.04
582.42	907.88
582.77	907.07
583.12	906.71
583.47	906.47
583.82	906.02
584.17	905.50
584.53	904.81
584.88	904.06
585.23	903.03
585.58	902.04
585.93	900.84
586.28	899.82
586.63	898.98
586.98	898.16
587.34	897.49
587.69	896.13
588.04	894.59
588.39	893.25
588.74	891.51
589.09	890.12
589.44	888.42
589.79	887.00
590.14	886.11
590.49	884.42
590.84	882.53
591.19	881.07
591.54	879.43
591.89	877.41
592.25	875.65
592.60	873.45
592.95	871.25
593.30	869.44
593.65	867.52
594.00	865.59
594.35	864.59
594.70	862.68
595.05	861.09
595.40	859.29
595.75	857.17
596.10	855.70
596.45	853.36
596.80	851.28
597.15	849.04
597.50	846.61
597.85	844.88
598.19	842.93
598.54	840.44
598.89	838.28
599.24	836.54
599.59	834.53
599.94	832.81
600.29	831.09
600.64	828.99
600.99	826.72
601.34	824.57
601.69	821.23
602.04	818.93
602.39	816.44
602.74	814.27
603.08	812.31
603.43	810.05
603.78	808.16
604.13	806.14
604.48	804.12
604.83	802.20
605.18	800.20
605.53	798.41
605.87	796.83
606.22	795.72
606.57	794.50
606.92	793.48
607.27	792.61
607.62	791.71
607.96	790.84
608.31	789.78
608.66	788.53
609.01	787.18
609.36	785.66
609.70	784.03
610.05	782.31
610.40	780.47
610.75	778.73
611.10	776.91
611.44	774.70
611.79	772.54
612.14	770.26
612.49	767.44
612.83	764.65
613.18	761.79
613.53	758.31
613.88	754.60
614.22	750.72
614.57	746.39
614.92	742.10
615.27	738.12
615.61	734.20
615.96	730.49
616.31	726.89
616.65	723.47
617.00	720.11
617.35	716.80
617.70	713.59
618.04	710.15
618.39	706.92
618.74	704.09
619.08	700.93
619.43	697.62
619.78	694.62
620.12	691.56
620.47	688.66
620.82	685.82
621.16	682.91
621.51	680.25
621.85	677.80
622.20	675.22
622.55	672.45
622.89	669.93
623.24	667.43
623.59	664.97
623.93	662.25
624.28	659.44
624.62	656.79
624.97	653.97
625.32	651.21
625.66	648.37
626.01	645.53
626.35	643.03
626.70	640.63
627.04	638.46
627.39	636.05
627.73	633.57
628.08	630.93
628.43	628.42
628.77	625.60
629.12	622.85
629.46	620.30
629.81	617.68
630.15	614.88
630.50	612.15
630.84	609.40
631.19	606.73
631.53	604.17
631.88	601.29
632.22	598.74
632.57	596.30
632.91	593.73
633.26	591.12
633.60	588.22
633.95	585.49
634.29	582.36
634.64	579.54
634.98	576.61
635.32	573.89
635.67	571.30
636.01	568.79
636.36	566.22
636.70	563.63
637.05	561.06
637.39	558.47
637.73	555.81
638.08	553.42
638.42	550.97
638.77	548.64
639.11	546.39
639.45	543.88
639.80	541.40
640.14	539.00
640.49	536.58
640.83	534.26
641.17	531.94
641.52	529.78
641.86	527.60
642.20	525.71
642.55	523.69
642.89	521.62
643.23	519.57
643.58	517.68
643.92	515.61
644.26	513.48
644.61	511.46
644.95	509.41
645.29	507.13
645.64	505.17
645.98	503.20
646.32	501.19
646.66	498.99
647.01	496.89
647.35	495.10
647.69	493.17
648.04	491.38
648.38	489.44
648.72	487.50
649.06	485.41
649.41	483.20
649.75	481.20
650.09	479.26
650.43	477.34
650.78	475.16
651.12	473.04
651.46	471.20
651.80	469.40
652.14	467.60
652.49	465.95
652.83	463.88
653.17	461.72
653.51	459.59
653.85	457.74
654.20	455.81
654.54	453.67
654.88	451.64
655.22	449.61
655.56	447.72
655.90	445.91
656.25	444.18
656.59	442.39
656.93	440.45
657.27	438.70
657.61	436.69
657.95	434.98
658.29	433.29
658.64	431.51
658.98	429.72
659.32	427.81
659.66	425.90
660.00	424.05
660.34	422.28
660.68	420.48
661.02	418.66
661.36	416.95
661.70	415.32
662.05	413.71
662.39	412.14
662.73	410.48
663.07	408.81
663.41	407.10
663.75	405.51
664.09	403.94
664.43	402.14
664.77	400.66
665.11	398.97
665.45	397.44
665.79	395.90
666.13	394.26
666.47	392.78
666.81	391.30
667.15	389.80
667.49	388.40
667.83	387.20
668.17	385.84
668.51	384.47
668.85	382.99
669.19	381.76
669.53	380.30
669.87	378.86
670.21	377.45
670.55	376.01
670.89	374.75
671.23	373.53
671.57	372.34
671.91	371.04
672.25	369.80
672.58	368.60
672.92	367.30
673.26	366.11
673.60	364.88
673.94	363.61
674.28	362.51
674.62	361.33
674.96	359.97
675.30	358.81
675.64	357.67
675.97	356.56
676.31	355.29
676.65	354.16
676.99	353.19
677.33	352.11
677.67	351.14
678.01	350.06
678.34	348.90
678.68	347.92
679.02	346.84
679.36	345.84
679.70	344.76
680.04	343.75
680.37	342.67
680.71	341.59
681.05	340.59
681.39	339.60
681.73	338.60
682.06	337.71
682.40	336.79
682.74	335.89
683.08	335.12
683.42	334.15
683.75	333.34
684.09	332.30
684.43	331.40
684.77	330.43
685.10	329.46
685.44	328.58
685.78	327.54
686.12	326.59
686.45	325.72
686.79	324.80
687.13	323.96
687.46	323.21
687.80	322.52
688.14	321.68
688.48	320.87
688.81	320.09
689.15	319.37
689.49	318.54
689.82	317.77
690.16	316.77
690.50	315.94
690.83	315.10
691.17	314.27
691.51	313.46
691.84	312.70
692.18	311.88
692.52	310.99
692.85	310.17
693.19	309.56
693.52	308.77
693.86	308.00
694.20	307.31
694.53	306.56
694.87	305.72
695.21	305.01
695.54	304.20
695.88	303.39
696.21	302.51
696.55	301.77
696.88	300.92
697.22	300.25
697.56	299.69
697.89	298.98
698.23	298.39
698.56	297.75
698.90	297.22
699.23	296.67
699.57	296.26
699.90	295.70
700.24	295.07
700.58	294.56
700.91	294.10
701.25	293.69
701.58	293.14
701.92	292.72
702.25	292.20
702.59	291.70
702.92	291.24
703.26	290.82
703.59	290.46
703.93	290.26
704.26	289.90
704.60	289.36
704.93	288.85
705.26	288.34
705.60	287.95
705.93	287.40
706.27	286.92
706.60	286.38
706.94	286.04
707.27	285.57
707.61	285.06
707.94	284.54
708.27	283.91
708.61	283.41
708.94	282.88
709.28	282.37
709.61	281.92
709.94	281.43
710.28	280.92
710.61	280.36
710.95	279.53
711.28	279.05
711.61	278.54
711.95	278.12
712.28	277.57
712.61	277.00
712.95	276.55
713.28	276.13
713.61	275.60
713.95	274.97
714.28	274.46
714.61	273.90
714.95	273.38
715.28	272.88
715.61	272.33
715.95	271.83
716.28	271.41
716.61	271.05
716.95	270.57
717.28	270.13
717.61	269.71
717.94	269.44
718.28	268.93
718.61	268.53
718.94	268.16
719.27	267.83
719.61	267.49
719.94	267.08
720.27	266.63
720.60	266.29
720.94	265.98
721.27	265.71
721.60	265.49
721.93	265.19
722.27	264.91
722.60	264.70
722.93	264.45
723.26	264.22
723.59	263.86
723.93	263.68
724.26	263.47
724.59	263.21
724.92	262.94
725.25	262.73
725.59	262.52
725.92	262.28
726.25	261.97
726.58	261.76
726.91	261.46
727.24	261.27
727.57	261.06
727.91	260.80
728.24	260.53
728.57	260.29
728.90	260.08
729.23	259.85
729.56	259.72
729.89	259.50
730.22	259.25
730.55	259.07
730.89	258.86
731.22	258.61
731.55	258.37
731.88	258.19
732.21	257.90
732.54	257.63
732.87	257.36
733.20	257.21
733.53	256.96
733.86	256.87
734.19	256.62
734.52	256.45
734.85	256.42
735.18	256.20
735.51	256.04
735.84	255.87
736.17	255.71
736.50	255.41
736.83	255.50
737.16	255.33
737.49	255.09
737.82	254.88
738.15	254.78
738.48	254.60
738.81	254.40
739.14	254.27
739.47	254.15
739.80	254.06
740.13	253.88
740.46	253.65
740.79	253.41
741.12	253.27
741.45	253.09
741.78	252.81
742.11	252.69
742.44	252.53
742.77	252.40
743.10	252.18
743.43	251.99
743.75	251.57
744.08	251.70
744.41	251.54
744.74	251.38
745.07	251.10
745.40	251.02
745.73	250.93
746.06	250.75
746.39	250.56
746.71	250.33
747.04	250.19
747.37	250.03
747.70	249.93
748.03	249.80
748.36	249.67
748.68	249.45
749.01	249.24
749.34	249.03
749.67	248.89
750.00	248.78
750.33	248.82
750.65	248.67
750.98	248.21
751.31	248.07
751.64	247.91
751.97	247.93
752.29	247.69
752.62	247.46
752.95	247.36
753.28	247.20
753.60	247.07
753.93	247.02
754.26	246.95
754.59	246.78
754.91	246.58
755.24	246.44
755.57	246.36
755.90	246.23
756.22	246.12
756.55	245.93
756.88	245.81
757.20	245.52
757.53	245.36
757.86	245.26
758.19	245.19
758.51	245.13
758.84	244.91
759.17	244.85
759.49	244.78
759.82	244.76
760.15	244.75
760.47	244.65
760.80	244.44
761.13	244.38
761.45	244.30
761.78	244.28
762.11	244.18
762.43	244.11
762.76	244.08
763.08	244.04
763.41	244.02
763.74	243.87
764.06	243.82
764.39	243.77
764.71	243.71
765.04	243.64
765.37	243.50
765.69	243.48
766.02	243.37
766.34	243.27
766.67	243.09
767.00	243.01
767.32	243.05
767.65	243.20
767.97	243.07
768.30	243.02
768.62	242.93
768.95	242.84
769.27	242.73
769.60	242.66
769.92	242.57
770.25	242.46
770.57	242.42
770.90	242.37
771.22	242.25
771.55	242.19
771.87	242.12
772.20	242.13
772.52	242.22
772.85	242.43
773.17	242.42
773.50	242.33
773.82	242.28
774.15	242.07
774.47	241.88
774.80	241.82
775.12	241.73
775.45	241.71
775.77	241.69
776.09	241.69
776.42	241.65
776.74	241.71
777.07	241.69
777.39	241.66
777.72	241.64
778.04	241.67
778.36	241.58
778.69	241.53
779.01	241.48
779.33	241.27
779.66	241.00
779.98	240.90
780.31	240.92
780.63	240.90
780.95	241.01
781.28	240.93
781.60	240.88
781.92	240.83
782.25	240.78
782.57	240.78
782.89	240.70
783.22	240.71
783.54	240.56
783.86	240.54
784.19	240.55
784.51	240.50
784.83	240.44
785.16	240.40
785.48	240.37
785.80	240.36
786.12	240.31
786.45	240.27
786.77	240.27
787.09	240.23
787.42	240.18
787.74	240.07
788.06	240.06
788.38	240.05
788.71	240.02
789.03	240.02
789.35	239.95
789.67	239.88
789.99	239.86
790.32	239.91
790.64	239.88
790.96	240.00
791.28	240.01
791.61	239.99
791.93	239.99
792.25	239.93
792.57	240.03
792.89	239.98
793.21	240.03
793.54	239.95
793.86	239.90
794.18	239.84
794.50	239.80
794.82	239.78
795.14	239.82
795.47	239.86
795.79	239.77
796.11	239.73
796.43	239.72
796.75	239.65
797.07	239.54
797.39	239.48
797.71	239.31
798.04	239.21
798.36	239.17
798.68	239.18
799.00	239.15
799.32	239.00
799.64	239.06
799.96	238.91
800.28	238.97
800.60	238.88
800.92	238.92
801.24	238.90
801.56	238.89
801.89	238.79
802.21	238.71
802.53	238.70
802.85	238.66
803.17	238.71
803.49	238.62
803.81	238.58
804.13	238.55
804.45	238.53
804.77	238.47
805.09	238.47
805.41	238.39
805.73	238.37
806.05	238.30
806.37	238.22
806.69	238.23
807.01	238.12
807.33	238.16
807.65	238.03
807.97	238.06
808.28	238.01
808.60	237.99
808.92	238.01
809.24	238.14
809.56	238.14
809.88	238.05
810.20	238.06
810.52	238.04
810.84	238.01
811.16	237.88
811.48	237.91
811.80	237.94
812.12	237.92
812.43	237.96
812.75	237.96
813.07	237.92
813.39	237.95
813.71	237.97
814.03	237.90
814.35	237.88
814.67	237.82
814.98	237.77
815.30	237.80
815.62	237.72
815.94	237.50
816.26	237.43
816.58	237.40
816.89	237.41
817.21	237.37
817.53	237.34
817.85	237.40
818.17	237.33
818.48	237.23
818.80	237.26
819.12	237.24
819.44	237.18
819.76	237.16
820.07	237.08
820.39	237.05
820.71	237.08
821.03	237.08
821.34	237.07
821.66	237.07
821.98	237.09
822.30	237.08
822.61	237.28
822.93	237.33
823.25	237.38
823.57	237.38
823.88	237.49
824.20	237.53
824.52	237.57
824.83	237.59
825.15	237.57
825.47	237.52
825.79	237.52
826.10	237.54
826.42	237.50
826.74	237.52
827.05	237.51
827.37	237.50
827.69	237.54
828.00	237.54
828.32	237.57
828.64	237.43
828.95	237.53
829.27	237.46
829.58	237.39
829.90	237.36
830.22	237.33
830.53	237.28
830.85	237.22
831.17	237.18
831.48	237.19
831.80	237.24
832.11	237.26
832.43	237.20
832.75	237.22
833.06	237.44
833.38	237.42
833.69	237.41
834.01	237.44
834.32	237.38
834.64	237.39
834.96	237.38
835.27	237.45
835.59	237.41
835.90	237.30
836.22	237.31
836.53	237.31
836.85	237.26
837.16	237.48
837.48	237.49
837.79	237.56
838.11	237.56
838.42	237.55
838.74	237.61
839.05	237.63
839.37	237.61
839.68	237.45
840.00	237.47
840.31	237.47
840.63	237.45
840.94	237.38
841.26	237.34
841.57	237.35
841.88	237.31
842.20	237.25
842.51	237.28
842.83	237.29
843.14	237.49
843.46	237.52
843.77	237.33
844.08	237.30
844.40	237.18
844.71	237.14
845.03	237.11
845.34	237.05
845.65	237.07
845.97	237.10
846.28	237.07
846.60	237.03
846.91	236.99
847.22	236.94
847.54	237.05
847.85	237.10
848.16	237.06
848.48	237.02
848.79	237.11
849.10	237.08
849.42	237.10
849.73	236.85
850.04	236.84
850.36	236.82
850.67	236.87
850.98	236.88
851.30	236.92
851.61	236.90
851.92	236.82
852.23	236.83
852.55	236.75
852.86	236.75
853.17	236.76
853.49	236.83
853.80	236.93
854.11	236.95
854.42	236.90
854.74	236.89
855.05	236.98
855.36	236.85
855.67	236.83
855.99	236.90
856.30	237.17
856.61	237.22
856.92	237.20
857.23	237.16
857.55	237.14
857.86	237.11
858.17	237.16
858.48	237.21
858.79	237.17
859.11	237.20
859.42	237.10
859.73	237.13
860.04	237.13
860.35	237.09
860.66	237.01
860.98	237.00
861.29	237.05
861.60	236.98
861.91	237.08
862.22	237.07
862.53	236.99
862.84	236.70
863.16	236.75
863.47	236.76
863.78	236.80
864.09	236.81
864.40	236.87
864.71	236.85
865.02	236.90
865.33	236.91
865.64	236.89
865.95	236.98
866.27	237.06
866.58	237.01
866.89	237.00
867.20	237.00
867.51	237.02
867.82	237.03
868.13	237.12
868.44	237.06
868.75	237.11
869.06	237.13
869.37	237.17
869.68	237.11
869.99	237.15
870.30	237.14
870.61	237.22
870.92	237.17
871.23	237.23
871.54	237.26
871.85	237.31
872.16	237.33
872.47	237.33
872.78	237.26
873.09	237.27
873.40	237.28
873.71	237.35
874.02	237.35
874.33	237.32
874.64	237.26
874.95	237.31
875.26	237.32
875.56	237.34
875.87	237.29
876.18	237.27
876.49	237.52
876.80	237.47
877.11	237.42
877.42	237.47
877.73	237.40
878.04	237.36
878.35	237.38
878.66	237.34
878.96	237.31
879.27	237.30
879.58	237.29
879.89	237.25
880.20	237.25
880.51	237.18
880.82	237.13
881.12	237.13
881.43	237.07
881.74	236.95
882.05	236.86
882.36	236.87
882.67	236.87
882.97	236.55
883.28	236.54
883.59	236.54
883.90	236.48
884.21	236.54
884.51	236.49
884.82	236.37
885.13	236.36
885.44	236.35
885.74	236.36
886.05	236.30
886.36	236.30
886.67	236.23
886.98	236.39
887.28	236.40
887.59	236.41
887.90	236.43
888.20	236.50
888.51	236.58
888.82	236.57
889.13	236.55
889.43	236.72
889.74	236.69
890.05	236.63
890.35	236.67
890.66	236.60
890.97	236.63
891.28	236.64
891.58	236.69
891.89	236.71
892.20	236.70
892.50	236.81
892.81	236.78
893.12	236.76
893.42	236.65
893.73	236.65
894.04	236.60
894.34	236.66
894.65	236.61
894.95	236.56
895.26	236.60
895.57	236.72
895.87	236.53
896.18	236.54
896.48	236.56
896.79	236.54
897.10	236.54
897.40	236.53
897.71	236.56
898.01	236.53
898.32	236.52
898.63	236.49
898.93	236.47
899.24	236.43
899.54	236.41
899.85	236.37
900.15	236.40
900.46	236.41
900.76	236.40
901.07	236.48
901.38	236.56
901.68	236.56
901.99	236.46
902.29	236.50
902.60	236.53
902.90	236.51
903.21	236.52
903.51	236.50
903.82	236.54
904.12	236.53
904.43	236.53
904.73	236.51
905.03	236.50
905.34	236.69
905.64	236.73
905.95	236.77
906.25	236.79
906.56	236.70
906.86	236.78
907.17	236.77
907.47	236.76
907.77	236.68
908.08	236.65
908.38	236.67
908.69	236.67
908.99	236.70
909.30	236.77
909.60	236.69
909.90	236.75
910.21	236.69
910.51	236.65
910.81	236.65
911.12	236.68
911.42	236.67
911.73	236.43
912.03	236.46
912.33	236.58
912.64	236.60
912.94	236.62
913.24	236.57
913.55	236.48
913.85	236.44
914.15	236.52
914.46	236.60
914.76	236.48
915.06	236.48
915.37	236.41
915.67	236.40
915.97	236.48
916.27	236.43
916.58	236.44
916.88	236.45
917.18	236.50
917.49	236.69
917.79	236.70
918.09	236.78
918.39	236.84
918.70	236.72
919.00	236.75
919.30	236.85
919.60	236.76
919.91	236.78
920.21	236.80
920.51	236.75
920.81	236.69
921.12	236.79
921.42	236.77
921.72	236.83
922.02	236.79
922.32	236.74
922.63	236.73
922.93	236.85
923.23	236.85
923.53	236.79
923.83	236.62
924.13	236.64
924.44	236.62
924.74	236.63
925.04	236.71
925.34	236.71
925.64	236.65
925.94	236.65
926.24	236.74
926.55	236.73
926.85	236.72
927.15	236.68
927.45	236.67
927.75	236.67
928.05	236.65
928.35	236.69
928.65	236.79
928.95	236.85
929.26	236.75
929.56	236.77
929.86	236.80
930.16	236.73
930.46	236.74
930.76	236.72
931.06	236.63
931.36	236.57
931.66	236.60
931.96	236.63
932.26	236.70
932.56	236.73
932.86	236.74
933.16	236.70
933.46	236.76
933.76	236.71
934.06	236.79
934.36	236.87
934.66	236.84
934.96	236.76
935.26	236.72
935.56	236.78
935.86	236.76
936.16	236.72
936.46	236.76
936.76	236.70
937.06	236.69
937.36	236.66
937.66	236.67
937.96	236.59
938.26	236.53
938.56	236.53
938.86	236.43
939.16	236.49
939.46	236.56
939.76	236.52
940.06	236.51
940.35	236.43
940.65	236.30
940.95	236.33
941.25	236.25
941.55	236.25
941.85	236.18
942.15	236.18
942.45	236.23
942.75	236.17
943.04	236.18
943.34	236.25
943.64	236.24
943.94	236.19
944.24	236.23
944.54	236.26
944.84	236.23
945.13	236.23
945.43	236.21
945.73	236.17
946.03	236.21
946.33	236.21
946.62	236.18
946.92	236.17
947.22	236.18
947.52	236.20
947.82	236.18
948.11	236.22
948.41	236.18
948.71	236.12
949.01	236.18
949.31	236.18
949.60	236.10
949.90	236.14
950.20	236.16
950.50	236.16
950.79	236.15
951.09	236.17
951.39	236.12
951.69	236.06
951.98	236.12
952.28	236.13
952.58	236.10
952.87	236.12
953.17	236.14
953.47	236.17
953.76	236.25
954.06	236.25
954.36	236.22
954.66	236.31
954.95	236.31
955.25	236.37
955.55	236.44
955.84	236.45
956.14	236.51
956.44	236.55
956.73	236.47
957.03	236.46
957.32	236.51
957.62	236.56
957.92	236.61
958.21	236.63
958.51	236.83
958.81	236.91
959.10	236.94
959.40	237.03
959.69	237.02
959.99	237.04
960.29	237.08
960.58	237.09
960.88	237.11
961.17	237.16
961.47	237.16
961.76	237.09
962.06	237.08
962.36	237.05
962.65	237.04
962.95	237.14
963.24	237.14
963.54	237.14
963.83	237.17
964.13	237.16
964.42	237.02
964.72	236.85
965.01	236.82
965.31	236.79
965.60	236.72
965.90	236.84
966.19	236.74
966.49	236.78
966.78	236.73
967.08	236.69
967.37	236.69
967.67	236.68
967.96	236.71
968.26	236.73
968.55	236.77
968.85	236.70
969.14	236.61
969.43	236.55
969.73	236.49
970.02	236.40
970.32	236.41
970.61	236.43
970.91	236.36
971.20	236.32
971.49	236.28
971.79	236.27
972.08	236.09
972.38	236.16
972.67	236.13
972.96	236.20
973.26	236.17
973.55	236.24
973.85	236.16
974.14	236.14
974.43	236.15
974.73	236.10
975.02	236.10
975.31	236.16
975.61	236.17
975.90	236.18
976.19	236.20
976.49	236.24
976.78	236.25
977.07	236.29
977.37	236.32
977.66	236.40
977.95	236.43
978.24	236.42
978.54	236.47
978.83	236.40
979.12	236.33
979.42	236.36
979.71	236.35
980.00	236.38
980.29	236.43
980.59	236.40
980.88	236.48
981.17	236.46
981.46	236.48
981.76	236.49
982.05	236.53
982.34	236.60
982.63	236.58
982.93	236.60
983.22	236.65
983.51	236.67
983.80	236.73
984.09	236.74
984.39	236.81
984.68	236.72
984.97	236.78
985.26	236.80
985.55	236.78
985.85	236.69
986.14	236.76
986.43	236.76
986.72	236.71
987.01	236.59
987.30	236.60
987.59	236.58
987.89	236.56
988.18	236.56
988.47	236.49
988.76	236.49
989.05	236.50
989.34	236.44
989.63	236.46
989.92	236.39
990.22	236.40
990.51	236.39
990.80	236.40
991.09	236.39
991.38	236.38
991.67	236.41
991.96	236.46
992.25	236.41
992.54	236.37
992.83	236.44
993.12	236.51
993.41	236.60
993.70	236.65
993.99	236.73
994.28	236.74
994.58	236.75
994.87	236.71
995.16	236.72
995.45	236.75
995.74	236.69
996.03	236.70
996.32	236.71
996.61	236.75
996.90	236.79
997.19	236.81
997.48	236.89
997.77	236.84
998.06	236.82
998.34	236.83
998.63	236.86
998.92	236.85
999.21	236.84
999.50	236.82
999.79	236.75
1000.08	236.71
1000.37	236.73
1000.66	236.78
1000.95	236.80
1001.24	236.82
1001.53	236.86
1001.82	236.82
1002.11	236.75
1002.40	236.80
1002.68	236.83
1002.97	236.96
1003.26	236.88
1003.55	236.77
1003.84	236.87
1004.13	236.95
1004.42	236.95
1004.71	236.94
1004.99	236.97
1005.28	236.99
1005.57	236.94
1005.86	236.90
1006.15	236.92
1006.44	236.92
1006.72	236.83
1007.01	236.79
1007.30	236.77
1007.59	236.70
1007.88	236.71
1008.17	236.69
1008.45	236.59
1008.74	236.50
1009.03	236.32
1009.32	236.35
1009.60	236.29
1009.89	236.21
1010.18	236.11
1010.47	236.08
1010.76	236.04
1011.04	235.92
1011.33	235.91
1011.62	235.94
1011.91	236.03
1012.19	236.02
1012.48	235.94
1012.77	235.94
1013.05	236.13
1013.34	236.07
1013.63	236.07
1013.92	236.11
1014.20	236.10
1014.49	236.06
1014.78	236.03
1015.06	235.98
1015.35	235.97
1015.64	236.06
1015.92	236.04
1016.21	236.00
1016.50	236.04
1016.78	236.05
1017.07	236.07
1017.36	236.05
1017.64	235.97
1017.93	235.96
1018.22	235.94
1018.50	235.95
1018.79	235.98
1019.08	235.80
1019.36	235.78
1019.65	235.73
1019.93	235.80
1020.22	235.91
1020.51	236.04
1020.79	236.01
1021.08	235.53
1021.36	236.13
1021.65	235.87
1021.94	235.53
1022.22	235.23
1022.51	235.30
1022.79	237.47
1023.08	237.17
1023.36	238.43
1023.65	234.77
>>>>>End Processed Spectral Data<<<<<
