SpectraSuite Data File
++++++++++++++++++++++++++++++++++++
Date: Mon Oct 22 15:14:01 EDT 2012
User: group
Dark Spectrum Present: No
Reference Spectrum Present: No
Number of Sampled Component Spectra: 1
Spectrometers: USB2E7196
Integration Time (usec): 91000 (USB2E7196)
Spectra Averaged: 30 (USB2E7196)
Boxcar Smoothing: 10 (USB2E7196)
Correct for Electrical Dark: No (USB2E7196)
Strobe/Lamp Enabled: No (USB2E7196)
Correct for Detector Non-linearity: No (USB2E7196)
Correct for Stray Light: No (USB2E7196)
Number of Pixels in Processed Spectrum: 2048
>>>>>Begin Processed Spectral Data<<<<<
339.09	0.00
339.48	224.83
339.86	226.00
340.24	227.50
340.63	228.30
341.01	232.77
341.39	231.10
341.78	233.13
342.16	234.30
342.54	235.83
342.93	222.63
343.31	233.92
343.69	234.44
344.07	234.92
344.46	235.41
344.84	235.83
345.22	236.01
345.60	236.28
345.99	236.50
346.37	236.61
346.75	236.66
347.13	236.77
347.52	236.79
347.90	236.90
348.28	236.89
348.66	236.94
349.05	236.88
349.43	236.90
349.81	236.94
350.19	237.05
350.57	237.17
350.96	237.27
351.34	237.35
351.72	237.46
352.10	237.53
352.48	237.52
352.87	237.55
353.25	237.65
353.63	237.65
354.01	237.67
354.39	237.78
354.77	237.86
355.15	237.97
355.54	238.03
355.92	238.00
356.30	238.03
356.68	238.21
357.06	238.25
357.44	238.29
357.82	238.31
358.20	238.36
358.58	238.38
358.97	238.41
359.35	238.44
359.73	238.50
360.11	238.50
360.49	238.57
360.87	238.59
361.25	238.63
361.63	238.78
362.01	238.80
362.39	238.79
362.77	238.81
363.15	238.81
363.53	238.77
363.91	238.79
364.29	238.85
364.67	238.68
365.05	238.78
365.43	238.83
365.81	238.89
366.19	238.97
366.57	239.07
366.95	239.02
367.33	238.95
367.71	238.91
368.09	238.97
368.47	238.94
368.85	239.01
369.23	238.99
369.61	238.91
369.99	238.97
370.37	238.93
370.75	239.00
371.13	238.96
371.51	238.93
371.89	238.93
372.27	238.90
372.65	238.88
373.03	238.78
373.41	238.74
373.78	238.70
374.16	238.59
374.54	238.45
374.92	238.49
375.30	238.41
375.68	238.33
376.06	238.32
376.44	238.32
376.82	238.19
377.19	238.06
377.57	238.01
377.95	237.92
378.33	237.88
378.71	237.70
379.09	237.66
379.47	237.66
379.84	237.60
380.22	237.53
380.60	237.44
380.98	237.41
381.36	237.35
381.73	237.26
382.11	237.23
382.49	237.23
382.87	237.17
383.25	237.20
383.62	237.45
384.00	237.31
384.38	237.22
384.76	237.21
385.13	237.32
385.51	237.21
385.89	237.16
386.27	237.16
386.64	237.13
387.02	237.09
387.40	236.96
387.78	236.97
388.15	236.97
388.53	236.90
388.91	236.87
389.29	236.84
389.66	236.88
390.04	236.79
390.42	236.77
390.79	236.72
391.17	236.69
391.55	236.35
391.92	236.37
392.30	236.35
392.68	236.34
393.05	236.34
393.43	236.38
393.81	236.33
394.18	236.32
394.56	236.36
394.94	236.43
395.31	236.47
395.69	236.53
396.06	236.56
396.44	236.57
396.82	236.55
397.19	236.69
397.57	236.67
397.95	236.79
398.32	236.73
398.70	236.84
399.07	236.97
399.45	237.12
399.82	237.17
400.20	237.23
400.58	237.33
400.95	237.34
401.33	237.47
401.70	237.75
402.08	237.84
402.45	237.95
402.83	238.05
403.20	238.24
403.58	238.37
403.95	238.52
404.33	238.83
404.71	239.09
405.08	239.33
405.46	239.59
405.83	239.86
406.21	240.20
406.58	240.51
406.96	240.75
407.33	241.07
407.70	241.49
408.08	242.09
408.45	242.55
408.83	243.08
409.20	243.57
409.58	243.97
409.95	244.61
410.33	245.21
410.70	245.88
411.08	246.65
411.45	247.43
411.82	248.27
412.20	249.13
412.57	250.17
412.95	251.04
413.32	252.18
413.69	253.26
414.07	254.45
414.44	255.80
414.82	257.21
415.19	258.87
415.56	260.52
415.94	262.15
416.31	264.11
416.68	266.02
417.06	268.18
417.43	270.35
417.81	272.77
418.18	275.31
418.55	277.95
418.93	280.76
419.30	283.71
419.67	286.84
420.04	290.07
420.42	293.49
420.79	297.50
421.16	301.37
421.54	305.51
421.91	309.73
422.28	314.11
422.66	318.80
423.03	323.36
423.40	328.16
423.77	333.44
424.15	338.74
424.52	344.26
424.89	350.28
425.26	356.18
425.64	361.81
426.01	367.96
426.38	374.37
426.75	381.01
427.13	387.78
427.50	394.89
427.87	402.49
428.24	410.07
428.61	417.37
428.99	425.33
429.36	434.02
429.73	442.63
430.10	451.32
430.47	460.21
430.85	469.51
431.22	479.33
431.59	489.57
431.96	499.51
432.33	510.54
432.70	521.29
433.08	533.88
433.45	545.83
433.82	557.77
434.19	571.13
434.56	584.12
434.93	596.70
435.30	609.37
435.68	623.21
436.05	636.94
436.42	650.67
436.79	663.44
437.16	677.14
437.53	691.64
437.90	705.84
438.27	720.12
438.64	734.67
439.01	748.35
439.38	760.68
439.75	772.58
440.13	786.18
440.50	798.95
440.87	809.59
441.24	820.44
441.61	832.33
441.98	841.23
442.35	851.67
442.72	862.15
443.09	872.12
443.46	878.31
443.83	882.60
444.20	886.51
444.57	891.89
444.94	894.49
445.31	897.30
445.68	899.64
446.05	900.71
446.42	899.81
446.79	898.55
447.16	896.94
447.53	895.90
447.90	890.89
448.27	885.88
448.64	878.69
449.01	873.39
449.37	864.31
449.74	855.61
450.11	844.71
450.48	833.13
450.85	821.37
451.22	811.45
451.59	802.11
451.96	793.00
452.33	780.86
452.70	770.23
453.07	757.17
453.43	744.23
453.80	731.44
454.17	719.11
454.54	707.59
454.91	695.41
455.28	683.40
455.65	672.24
456.02	660.98
456.38	651.70
456.75	640.25
457.12	630.74
457.49	621.08
457.86	612.13
458.23	604.23
458.59	595.68
458.96	586.95
459.33	579.12
459.70	571.30
460.07	564.97
460.43	557.60
460.80	550.79
461.17	544.80
461.54	538.83
461.91	533.03
462.27	526.95
462.64	521.90
463.01	516.23
463.38	510.77
463.74	505.44
464.11	500.59
464.48	496.28
464.85	491.65
465.21	488.16
465.58	484.36
465.95	480.00
466.32	476.28
466.68	472.53
467.05	468.85
467.42	465.08
467.78	461.22
468.15	457.49
468.52	454.79
468.88	451.34
469.25	448.20
469.62	445.71
469.98	443.03
470.35	440.40
470.72	437.99
471.08	435.36
471.45	433.22
471.82	431.00
472.18	428.56
472.55	426.82
472.92	424.85
473.28	423.15
473.65	421.40
474.02	419.77
474.38	418.38
474.75	417.13
475.11	415.88
475.48	414.99
475.85	414.27
476.21	413.42
476.58	412.72
476.94	412.15
477.31	411.45
477.67	410.90
478.04	410.52
478.41	410.26
478.77	410.30
479.14	410.05
479.50	410.15
479.87	410.44
480.23	410.76
480.60	410.87
480.96	411.07
481.33	411.68
481.69	412.26
482.06	412.78
482.42	413.27
482.79	413.94
483.15	414.90
483.52	416.11
483.88	417.17
484.25	418.24
484.61	419.54
484.98	420.92
485.34	422.41
485.71	424.02
486.07	425.87
486.44	427.50
486.80	429.46
487.17	431.43
487.53	433.66
487.90	435.73
488.26	438.15
488.62	440.75
488.99	443.26
489.35	445.80
489.72	448.58
490.08	451.74
490.44	454.74
490.81	457.83
491.17	460.93
491.54	464.40
491.90	467.98
492.26	471.54
492.63	475.25
492.99	479.00
493.36	482.94
493.72	487.10
494.08	491.38
494.45	495.70
494.81	500.08
495.17	504.57
495.54	509.48
495.90	514.35
496.26	519.03
496.63	523.96
496.99	529.21
497.35	534.64
497.72	540.09
498.08	545.69
498.44	551.26
498.80	557.06
499.17	562.77
499.53	568.67
499.89	574.75
500.26	580.66
500.62	586.80
500.98	593.04
501.34	599.09
501.71	605.55
502.07	611.96
502.43	618.44
502.79	624.84
503.16	631.42
503.52	638.07
503.88	644.78
504.24	651.29
504.60	657.76
504.97	664.23
505.33	670.59
505.69	677.27
506.05	683.82
506.41	690.34
506.78	696.89
507.14	703.32
507.50	709.77
507.86	716.28
508.22	722.66
508.59	728.72
508.95	735.07
509.31	741.16
509.67	747.31
510.03	753.17
510.39	759.06
510.75	764.71
511.12	770.17
511.48	775.72
511.84	781.11
512.20	786.36
512.56	791.62
512.92	796.72
513.28	801.66
513.64	806.50
514.00	810.89
514.37	815.19
514.73	819.26
515.09	823.11
515.45	827.00
515.81	830.81
516.17	834.36
516.53	837.52
516.89	840.77
517.25	843.71
517.61	846.81
517.97	849.60
518.33	851.86
518.69	854.26
519.05	856.31
519.41	858.36
519.77	860.37
520.13	862.13
520.49	863.66
520.85	865.07
521.21	866.32
521.57	867.95
521.93	868.75
522.29	869.76
522.65	870.32
523.01	870.79
523.37	870.96
523.73	871.63
524.09	871.66
524.45	871.56
524.81	871.41
525.17	870.96
525.53	870.76
525.89	870.43
526.25	869.90
526.61	869.30
526.97	868.77
527.33	868.21
527.68	867.76
528.04	867.05
528.40	866.07
528.76	865.21
529.12	864.05
529.48	863.30
529.84	862.05
530.20	861.33
530.56	860.40
530.91	859.65
531.27	858.54
531.63	857.90
531.99	857.10
532.35	856.04
532.71	855.15
533.07	854.18
533.42	853.61
533.78	852.90
534.14	852.17
534.50	851.26
534.86	850.59
535.21	849.27
535.57	848.28
535.93	847.10
536.29	846.27
536.65	845.58
537.00	844.96
537.36	844.49
537.72	843.83
538.08	843.45
538.44	842.70
538.79	842.16
539.15	841.66
539.51	841.28
539.87	841.18
540.22	840.53
540.58	840.18
540.94	839.63
541.29	839.10
541.65	838.55
542.01	838.43
542.37	837.97
542.72	837.87
543.08	837.70
543.44	837.84
543.79	837.38
544.15	836.97
544.51	836.87
544.87	836.73
545.22	836.48
545.58	836.16
545.94	836.03
546.29	835.66
546.65	835.15
547.01	834.72
547.36	834.46
547.72	834.59
548.07	834.37
548.43	834.36
548.79	834.47
549.14	834.74
549.50	835.02
549.86	835.29
550.21	835.47
550.57	836.15
550.92	836.43
551.28	837.02
551.64	837.45
551.99	837.65
552.35	838.25
552.70	838.89
553.06	839.25
553.41	839.82
553.77	840.54
554.13	841.41
554.48	842.22
554.84	843.13
555.19	844.15
555.55	845.39
555.90	846.18
556.26	847.22
556.61	848.08
556.97	848.66
557.32	849.45
557.68	850.41
558.03	851.31
558.39	852.41
558.74	853.59
559.10	854.69
559.45	855.95
559.81	857.33
560.16	858.40
560.52	859.95
560.87	861.59
561.23	863.25
561.58	865.31
561.94	866.89
562.29	868.26
562.64	869.86
563.00	871.38
563.35	873.04
563.71	874.49
564.06	876.09
564.42	877.51
564.77	878.65
565.12	880.08
565.48	881.79
565.83	883.40
566.19	885.44
566.54	887.26
566.89	888.83
567.25	890.16
567.60	891.82
567.96	893.20
568.31	894.49
568.66	895.63
569.02	896.52
569.37	897.35
569.72	898.34
570.08	899.07
570.43	899.69
570.78	900.55
571.14	901.29
571.49	902.00
571.84	903.23
572.20	904.35
572.55	905.59
572.90	905.99
573.26	906.68
573.61	906.74
573.96	907.00
574.31	907.03
574.67	907.11
575.02	907.23
575.37	907.35
575.72	907.41
576.08	907.50
576.43	907.28
576.78	907.50
577.13	907.81
577.49	908.05
577.84	908.44
578.19	908.58
578.54	908.69
578.90	908.96
579.25	908.69
579.60	908.41
579.95	907.62
580.30	907.42
580.66	907.14
581.01	907.00
581.36	906.74
581.71	906.75
582.06	906.70
582.42	906.39
582.77	905.97
583.12	905.61
583.47	905.48
583.82	905.18
584.17	904.56
584.53	903.85
584.88	903.19
585.23	902.28
585.58	901.41
585.93	900.47
586.28	899.41
586.63	898.40
586.98	897.53
587.34	897.03
587.69	895.78
588.04	894.62
588.39	893.12
588.74	891.52
589.09	890.19
589.44	888.71
589.79	887.54
590.14	886.41
590.49	884.68
590.84	882.92
591.19	881.54
591.54	879.97
591.89	877.87
592.25	876.05
592.60	873.71
592.95	871.69
593.30	869.85
593.65	867.78
594.00	865.94
594.35	865.08
594.70	862.90
595.05	861.31
595.40	859.25
595.75	857.33
596.10	855.75
596.45	853.60
596.80	851.43
597.15	849.02
597.50	846.75
597.85	844.97
598.19	842.95
598.54	840.51
598.89	838.26
599.24	836.47
599.59	834.46
599.94	832.93
600.29	830.94
600.64	829.00
600.99	826.89
601.34	824.78
601.69	821.57
602.04	819.32
602.39	816.63
602.74	814.56
603.08	812.25
603.43	810.04
603.78	808.06
604.13	806.20
604.48	804.28
604.83	802.28
605.18	800.28
605.53	798.33
605.87	796.67
606.22	795.50
606.57	794.43
606.92	793.40
607.27	792.49
607.62	791.69
607.96	790.59
608.31	789.63
608.66	788.28
609.01	786.89
609.36	785.35
609.70	783.95
610.05	782.03
610.40	780.48
610.75	778.54
611.10	776.74
611.44	774.39
611.79	772.19
612.14	769.91
612.49	767.20
612.83	764.33
613.18	761.43
613.53	758.05
613.88	754.34
614.22	750.33
614.57	746.04
614.92	741.76
615.27	737.78
615.61	733.80
615.96	730.09
616.31	726.46
616.65	723.05
617.00	719.73
617.35	716.60
617.70	713.28
618.04	710.02
618.39	706.73
618.74	703.88
619.08	700.72
619.43	697.38
619.78	694.29
620.12	691.51
620.47	688.63
620.82	685.85
621.16	682.99
621.51	680.56
621.85	677.98
622.20	675.51
622.55	672.80
622.89	670.32
623.24	667.79
623.59	665.28
623.93	662.71
624.28	659.96
624.62	657.22
624.97	654.38
625.32	651.52
625.66	648.62
626.01	645.85
626.35	643.44
626.70	641.11
627.04	639.06
627.39	636.51
627.73	634.07
628.08	631.39
628.43	628.75
628.77	625.77
629.12	623.00
629.46	620.46
629.81	617.86
630.15	615.24
630.50	612.53
630.84	609.77
631.19	607.10
631.53	604.53
631.88	601.80
632.22	599.26
632.57	596.96
632.91	594.43
633.26	591.78
633.60	588.89
633.95	585.96
634.29	582.77
634.64	580.00
634.98	576.98
635.32	574.25
635.67	571.78
636.01	569.21
636.36	566.59
636.70	563.92
637.05	561.33
637.39	558.62
637.73	556.06
638.08	553.60
638.42	551.05
638.77	548.62
639.11	546.24
639.45	543.94
639.80	541.27
640.14	538.87
640.49	536.49
640.83	534.15
641.17	531.91
641.52	529.79
641.86	527.49
642.20	525.54
642.55	523.53
642.89	521.40
643.23	519.42
643.58	517.69
643.92	515.65
644.26	513.51
644.61	511.55
644.95	509.40
645.29	507.23
645.64	505.18
645.98	503.19
646.32	501.15
646.66	498.86
647.01	496.89
647.35	495.00
647.69	492.95
648.04	491.07
648.38	489.10
648.72	487.08
649.06	485.13
649.41	483.03
649.75	480.99
650.09	479.10
650.43	477.09
650.78	474.88
651.12	472.74
651.46	470.79
651.80	468.88
652.14	467.20
652.49	465.47
652.83	463.42
653.17	461.14
653.51	459.03
653.85	457.21
654.20	455.19
654.54	453.20
654.88	451.26
655.22	449.24
655.56	447.48
655.90	445.71
656.25	443.87
656.59	442.02
656.93	440.17
657.27	438.29
657.61	436.42
657.95	434.71
658.29	432.96
658.64	431.20
658.98	429.27
659.32	427.20
659.66	425.32
660.00	423.65
660.34	421.99
660.68	420.22
661.02	418.35
661.36	416.76
661.70	414.94
662.05	413.34
662.39	411.71
662.73	410.06
663.07	408.39
663.41	406.76
663.75	405.20
664.09	403.53
664.43	401.81
664.77	400.23
665.11	398.56
665.45	396.96
665.79	395.40
666.13	393.90
666.47	392.48
666.81	390.97
667.15	389.40
667.49	387.98
667.83	386.79
668.17	385.49
668.51	384.04
668.85	382.68
669.19	381.33
669.53	379.97
669.87	378.47
670.21	377.07
670.55	375.70
670.89	374.50
671.23	373.35
671.57	372.06
671.91	370.86
672.25	369.67
672.58	368.57
672.92	367.25
673.26	366.07
673.60	364.84
673.94	363.58
674.28	362.53
674.62	361.38
674.96	360.10
675.30	358.90
675.64	357.68
675.97	356.61
676.31	355.43
676.65	354.22
676.99	353.23
677.33	352.12
677.67	351.03
678.01	349.83
678.34	348.76
678.68	347.75
679.02	346.69
679.36	345.66
679.70	344.57
680.04	343.66
680.37	342.59
680.71	341.49
681.05	340.62
681.39	339.51
681.73	338.49
682.06	337.49
682.40	336.55
682.74	335.70
683.08	334.85
683.42	333.89
683.75	333.03
684.09	332.10
684.43	331.17
684.77	330.16
685.10	329.23
685.44	328.28
685.78	327.37
686.12	326.37
686.45	325.51
686.79	324.54
687.13	323.70
687.46	322.87
687.80	322.20
688.14	321.27
688.48	320.48
688.81	319.71
689.15	319.00
689.49	318.20
689.82	317.35
690.16	316.42
690.50	315.58
690.83	314.81
691.17	313.98
691.51	313.15
691.84	312.47
692.18	311.65
692.52	310.83
692.85	310.06
693.19	309.36
693.52	308.61
693.86	307.91
694.20	307.19
694.53	306.45
694.87	305.64
695.21	304.86
695.54	304.11
695.88	303.31
696.21	302.44
696.55	301.74
696.88	301.05
697.22	300.37
697.56	299.82
697.89	299.13
698.23	298.45
698.56	297.89
698.90	297.27
699.23	296.60
699.57	296.02
699.90	295.40
700.24	294.84
700.58	294.22
700.91	293.71
701.25	293.26
701.58	292.75
701.92	292.32
702.25	291.87
702.59	291.39
702.92	290.98
703.26	290.57
703.59	290.09
703.93	289.90
704.26	289.53
704.60	289.04
704.93	288.56
705.26	288.10
705.60	287.61
705.93	287.20
706.27	286.89
706.60	286.51
706.94	286.14
707.27	285.62
707.61	285.14
707.94	284.75
708.27	284.21
708.61	283.76
708.94	283.21
709.28	282.70
709.61	282.20
709.94	281.66
710.28	281.15
710.61	280.63
710.95	279.82
711.28	279.33
711.61	278.77
711.95	278.33
712.28	277.79
712.61	277.34
712.95	276.91
713.28	276.47
713.61	275.91
713.95	275.38
714.28	274.96
714.61	274.49
714.95	273.98
715.28	273.45
715.61	272.94
715.95	272.44
716.28	272.00
716.61	271.67
716.95	271.23
717.28	270.81
717.61	270.45
717.94	270.08
718.28	269.55
718.61	269.25
718.94	268.88
719.27	268.54
719.61	268.18
719.94	267.77
720.27	267.29
720.60	266.94
720.94	266.59
721.27	266.27
721.60	265.98
721.93	265.60
722.27	265.38
722.60	265.09
722.93	264.85
723.26	264.63
723.59	264.28
723.93	264.06
724.26	263.81
724.59	263.47
724.92	263.18
725.25	262.97
725.59	262.67
725.92	262.41
726.25	262.17
726.58	261.89
726.91	261.63
727.24	261.41
727.57	261.26
727.91	260.95
728.24	260.72
728.57	260.44
728.90	260.31
729.23	260.00
729.56	259.87
729.89	259.62
730.22	259.34
730.55	259.08
730.89	258.85
731.22	258.57
731.55	258.31
731.88	258.19
732.21	258.01
732.54	257.74
732.87	257.51
733.20	257.33
733.53	257.13
733.86	256.95
734.19	256.73
734.52	256.49
734.85	256.40
735.18	256.13
735.51	256.03
735.84	255.75
736.17	255.59
736.50	255.34
736.83	255.40
737.16	255.23
737.49	255.11
737.82	254.86
738.15	254.74
738.48	254.65
738.81	254.44
739.14	254.20
739.47	254.04
739.80	253.90
740.13	253.72
740.46	253.55
740.79	253.37
741.12	253.17
741.45	252.93
741.78	252.73
742.11	252.66
742.44	252.45
742.77	252.32
743.10	252.17
743.43	252.03
743.75	251.64
744.08	251.77
744.41	251.53
744.74	251.42
745.07	251.22
745.40	251.04
745.73	250.96
746.06	250.82
746.39	250.69
746.71	250.50
747.04	250.29
747.37	250.18
747.70	250.06
748.03	249.98
748.36	249.89
748.68	249.75
749.01	249.51
749.34	249.37
749.67	249.26
750.00	249.16
750.33	249.14
750.65	249.08
750.98	248.64
751.31	248.57
751.64	248.45
751.97	248.47
752.29	248.42
752.62	248.16
752.95	248.07
753.28	247.96
753.60	247.83
753.93	247.85
754.26	247.71
754.59	247.53
754.91	247.39
755.24	247.24
755.57	247.11
755.90	247.06
756.22	246.98
756.55	246.84
756.88	246.73
757.20	246.47
757.53	246.25
757.86	246.17
758.19	246.06
758.51	245.98
758.84	245.74
759.17	245.63
759.49	245.58
759.82	245.57
760.15	245.47
760.47	245.38
760.80	245.20
761.13	245.11
761.45	245.03
761.78	244.98
762.11	244.97
762.43	244.82
762.76	244.76
763.08	244.61
763.41	244.52
763.74	244.35
764.06	244.27
764.39	244.21
764.71	244.13
765.04	244.06
765.37	243.95
765.69	243.86
766.02	243.76
766.34	243.67
766.67	243.49
767.00	243.46
767.32	243.48
767.65	243.54
767.97	243.44
768.30	243.42
768.62	243.30
768.95	243.20
769.27	243.14
769.60	243.01
769.92	242.91
770.25	242.79
770.57	242.76
770.90	242.70
771.22	242.59
771.55	242.50
771.87	242.41
772.20	242.30
772.52	242.40
772.85	242.60
773.17	242.53
773.50	242.44
773.82	242.30
774.15	242.16
774.47	241.94
774.80	241.89
775.12	241.77
775.45	241.70
775.77	241.61
776.09	241.54
776.42	241.54
776.74	241.56
777.07	241.50
777.39	241.43
777.72	241.35
778.04	241.33
778.36	241.29
778.69	241.26
779.01	241.19
779.33	240.94
779.66	240.64
779.98	240.59
780.31	240.58
780.63	240.66
780.95	240.63
781.28	240.62
781.60	240.55
781.92	240.52
782.25	240.47
782.57	240.48
782.89	240.46
783.22	240.37
783.54	240.29
783.86	240.33
784.19	240.25
784.51	240.30
784.83	240.26
785.16	240.27
785.48	240.25
785.80	240.28
786.12	240.31
786.45	240.30
786.77	240.29
787.09	240.25
787.42	240.14
787.74	240.13
788.06	240.09
788.38	240.03
788.71	239.95
789.03	239.99
789.35	239.97
789.67	239.97
789.99	239.98
790.32	239.94
790.64	239.90
790.96	240.16
791.28	240.00
791.61	239.93
791.93	239.96
792.25	239.94
792.57	240.10
792.89	240.00
793.21	239.95
793.54	239.93
793.86	239.85
794.18	239.82
794.50	239.79
794.82	239.81
795.14	239.88
795.47	239.95
795.79	239.93
796.11	239.87
796.43	239.85
796.75	239.83
797.07	239.83
797.39	239.78
797.71	239.55
798.04	239.64
798.36	239.61
798.68	239.49
799.00	239.43
799.32	239.30
799.64	239.37
799.96	239.32
800.28	239.33
800.60	239.33
800.92	239.30
801.24	239.23
801.56	239.17
801.89	239.07
802.21	239.01
802.53	238.85
802.85	238.87
803.17	238.88
803.49	238.83
803.81	238.77
804.13	238.76
804.45	238.68
804.77	238.61
805.09	238.62
805.41	238.63
805.73	238.62
806.05	238.51
806.37	238.50
806.69	238.50
807.01	238.44
807.33	238.47
807.65	238.38
807.97	238.46
808.28	238.39
808.60	238.36
808.92	238.31
809.24	238.50
809.56	238.42
809.88	238.38
810.20	238.38
810.52	238.39
810.84	238.32
811.16	238.28
811.48	238.23
811.80	238.27
812.12	238.21
812.43	238.19
812.75	238.15
813.07	238.07
813.39	238.02
813.71	237.94
814.03	237.85
814.35	237.90
814.67	237.76
814.98	237.76
815.30	237.75
815.62	237.72
815.94	237.55
816.26	237.54
816.58	237.42
816.89	237.32
817.21	237.26
817.53	237.32
817.85	237.37
818.17	237.38
818.48	237.26
818.80	237.25
819.12	237.20
819.44	237.17
819.76	237.12
820.07	237.16
820.39	237.17
820.71	237.17
821.03	237.15
821.34	237.13
821.66	237.13
821.98	237.11
822.30	237.10
822.61	237.22
822.93	237.16
823.25	237.20
823.57	237.17
823.88	237.25
824.20	237.19
824.52	237.19
824.83	237.15
825.15	237.16
825.47	237.15
825.79	237.18
826.10	237.18
826.42	237.13
826.74	237.09
827.05	237.07
827.37	237.15
827.69	237.09
828.00	237.10
828.32	237.10
828.64	237.15
828.95	237.23
829.27	237.13
829.58	237.10
829.90	237.15
830.22	237.20
830.53	237.12
830.85	237.09
831.17	237.06
831.48	237.04
831.80	237.06
832.11	237.06
832.43	237.00
832.75	237.01
833.06	237.19
833.38	237.13
833.69	237.12
834.01	237.04
834.32	237.05
834.64	237.03
834.96	237.07
835.27	237.01
835.59	236.97
835.90	236.94
836.22	237.01
836.53	236.98
836.85	237.06
837.16	237.24
837.48	237.23
837.79	237.26
838.11	237.30
838.42	237.26
838.74	237.35
839.05	237.36
839.37	237.34
839.68	237.24
840.00	237.26
840.31	237.32
840.63	237.36
840.94	237.39
841.26	237.44
841.57	237.38
841.88	237.46
842.20	237.45
842.51	237.44
842.83	237.42
843.14	237.61
843.46	237.56
843.77	237.47
844.08	237.48
844.40	237.46
844.71	237.39
845.03	237.46
845.34	237.40
845.65	237.43
845.97	237.44
846.28	237.43
846.60	237.44
846.91	237.43
847.22	237.38
847.54	237.42
847.85	237.38
848.16	237.33
848.48	237.24
848.79	237.33
849.10	237.41
849.42	237.38
849.73	237.16
850.04	237.15
850.36	237.09
850.67	237.14
850.98	237.16
851.30	237.19
851.61	237.09
851.92	237.10
852.23	237.17
852.55	237.16
852.86	237.15
853.17	237.13
853.49	237.11
853.80	237.13
854.11	237.16
854.42	237.16
854.74	237.18
855.05	237.23
855.36	237.05
855.67	236.99
855.99	237.02
856.30	237.24
856.61	237.17
856.92	237.15
857.23	237.07
857.55	236.98
857.86	236.98
858.17	237.03
858.48	236.96
858.79	236.86
859.11	236.86
859.42	236.81
859.73	236.80
860.04	236.76
860.35	236.72
860.66	236.60
860.98	236.64
861.29	236.67
861.60	236.61
861.91	236.69
862.22	236.61
862.53	236.53
862.84	236.34
863.16	236.42
863.47	236.42
863.78	236.43
864.09	236.47
864.40	236.43
864.71	236.44
865.02	236.52
865.33	236.51
865.64	236.52
865.95	236.51
866.27	236.68
866.58	236.71
866.89	236.67
867.20	236.63
867.51	236.56
867.82	236.50
868.13	236.59
868.44	236.52
868.75	236.64
869.06	236.71
869.37	236.67
869.68	236.59
869.99	236.56
870.30	236.61
870.61	236.60
870.92	236.59
871.23	236.54
871.54	236.56
871.85	236.60
872.16	236.62
872.47	236.61
872.78	236.43
873.09	236.44
873.40	236.47
873.71	236.46
874.02	236.48
874.33	236.54
874.64	236.45
874.95	236.50
875.26	236.42
875.56	236.37
875.87	236.36
876.18	236.34
876.49	236.58
876.80	236.60
877.11	236.54
877.42	236.59
877.73	236.62
878.04	236.60
878.35	236.62
878.66	236.64
878.96	236.68
879.27	236.66
879.58	236.69
879.89	236.68
880.20	236.83
880.51	236.80
880.82	236.83
881.12	236.86
881.43	236.82
881.74	236.81
882.05	236.80
882.36	236.82
882.67	236.93
882.97	236.67
883.28	236.62
883.59	236.69
883.90	236.62
884.21	236.67
884.51	236.59
884.82	236.56
885.13	236.53
885.44	236.57
885.74	236.58
886.05	236.56
886.36	236.51
886.67	236.44
886.98	236.51
887.28	236.46
887.59	236.46
887.90	236.45
888.20	236.52
888.51	236.59
888.82	236.56
889.13	236.51
889.43	236.72
889.74	236.74
890.05	236.73
890.35	236.83
890.66	236.80
890.97	236.79
891.28	236.73
891.58	236.71
891.89	236.67
892.20	236.66
892.50	236.61
892.81	236.64
893.12	236.58
893.42	236.47
893.73	236.48
894.04	236.47
894.34	236.52
894.65	236.52
894.95	236.48
895.26	236.49
895.57	236.59
895.87	236.35
896.18	236.29
896.48	236.31
896.79	236.27
897.10	236.31
897.40	236.31
897.71	236.39
898.01	236.34
898.32	236.34
898.63	236.34
898.93	236.39
899.24	236.39
899.54	236.37
899.85	236.42
900.15	236.40
900.46	236.42
900.76	236.39
901.07	236.33
901.38	236.34
901.68	236.34
901.99	236.26
902.29	236.31
902.60	236.34
902.90	236.28
903.21	236.26
903.51	236.23
903.82	236.32
904.12	236.24
904.43	236.28
904.73	236.27
905.03	236.27
905.34	236.44
905.64	236.42
905.95	236.43
906.25	236.47
906.56	236.45
906.86	236.39
907.17	236.42
907.47	236.42
907.77	236.45
908.08	236.39
908.38	236.39
908.69	236.44
908.99	236.39
909.30	236.47
909.60	236.47
909.90	236.49
910.21	236.47
910.51	236.46
910.81	236.42
911.12	236.47
911.42	236.54
911.73	236.38
912.03	236.40
912.33	236.49
912.64	236.48
912.94	236.54
913.24	236.56
913.55	236.55
913.85	236.60
914.15	236.60
914.46	236.72
914.76	236.71
915.06	236.70
915.37	236.72
915.67	236.67
915.97	236.70
916.27	236.63
916.58	236.53
916.88	236.58
917.18	236.66
917.49	236.78
917.79	236.68
918.09	236.69
918.39	236.77
918.70	236.81
919.00	236.83
919.30	236.87
919.60	236.88
919.91	236.86
920.21	236.84
920.51	236.81
920.81	236.79
921.12	236.91
921.42	236.91
921.72	236.96
922.02	237.05
922.32	237.08
922.63	237.12
922.93	237.35
923.23	237.37
923.53	237.37
923.83	237.27
924.13	237.40
924.44	237.39
924.74	237.43
925.04	237.39
925.34	237.35
925.64	237.30
925.94	237.26
926.24	237.39
926.55	237.31
926.85	237.36
927.15	237.31
927.45	237.24
927.75	237.20
928.05	237.22
928.35	237.17
928.65	237.19
928.95	237.20
929.26	237.07
929.56	237.04
929.86	236.98
930.16	236.95
930.46	236.91
930.76	236.91
931.06	236.76
931.36	236.74
931.66	236.78
931.96	236.82
932.26	236.86
932.56	236.79
932.86	236.86
933.16	236.84
933.46	236.80
933.76	236.70
934.06	236.74
934.36	236.80
934.66	236.79
934.96	236.78
935.26	236.80
935.56	236.83
935.86	236.79
936.16	236.82
936.46	236.82
936.76	236.75
937.06	236.69
937.36	236.73
937.66	236.73
937.96	236.72
938.26	236.66
938.56	236.63
938.86	236.56
939.16	236.60
939.46	236.65
939.76	236.61
940.06	236.68
940.35	236.64
940.65	236.50
940.95	236.51
941.25	236.43
941.55	236.39
941.85	236.37
942.15	236.42
942.45	236.49
942.75	236.44
943.04	236.49
943.34	236.56
943.64	236.56
943.94	236.52
944.24	236.48
944.54	236.40
944.84	236.42
945.13	236.39
945.43	236.30
945.73	236.26
946.03	236.38
946.33	236.33
946.62	236.33
946.92	236.32
947.22	236.26
947.52	236.26
947.82	236.27
948.11	236.18
948.41	236.12
948.71	236.03
949.01	236.06
949.31	236.01
949.60	235.98
949.90	235.99
950.20	235.96
950.50	235.97
950.79	235.97
951.09	236.00
951.39	235.99
951.69	236.01
951.98	236.11
952.28	236.07
952.58	236.07
952.87	236.05
953.17	236.10
953.47	236.16
953.76	236.18
954.06	236.14
954.36	236.20
954.66	236.24
954.95	236.32
955.25	236.31
955.55	236.34
955.84	236.25
956.14	236.30
956.44	236.35
956.73	236.28
957.03	236.35
957.32	236.34
957.62	236.35
957.92	236.37
958.21	236.29
958.51	236.54
958.81	236.60
959.10	236.63
959.40	236.66
959.69	236.66
959.99	236.70
960.29	236.78
960.58	236.75
960.88	236.80
961.17	236.77
961.47	236.80
961.76	236.78
962.06	236.88
962.36	236.83
962.65	236.84
962.95	236.93
963.24	236.89
963.54	236.90
963.83	236.92
964.13	236.91
964.42	236.82
964.72	236.62
965.01	236.65
965.31	236.63
965.60	236.54
965.90	236.69
966.19	236.65
966.49	236.58
966.78	236.60
967.08	236.59
967.37	236.62
967.67	236.55
967.96	236.59
968.26	236.58
968.55	236.60
968.85	236.54
969.14	236.53
969.43	236.50
969.73	236.51
970.02	236.50
970.32	236.49
970.61	236.55
970.91	236.48
971.20	236.34
971.49	236.34
971.79	236.38
972.08	236.20
972.38	236.21
972.67	236.20
972.96	236.20
973.26	236.15
973.55	236.15
973.85	236.10
974.14	236.04
974.43	236.00
974.73	235.97
975.02	235.94
975.31	235.96
975.61	236.00
975.90	235.88
976.19	235.87
976.49	235.86
976.78	235.81
977.07	235.79
977.37	235.90
977.66	235.93
977.95	235.94
978.24	235.94
978.54	235.98
978.83	235.91
979.12	235.90
979.42	235.93
979.71	235.89
980.00	235.96
980.29	236.04
980.59	236.06
980.88	236.15
981.17	236.14
981.46	236.13
981.76	236.14
982.05	236.26
982.34	236.27
982.63	236.28
982.93	236.27
983.22	236.33
983.51	236.25
983.80	236.25
984.09	236.24
984.39	236.19
984.68	236.15
984.97	236.25
985.26	236.24
985.55	236.17
985.85	236.15
986.14	236.20
986.43	236.22
986.72	236.16
987.01	236.04
987.30	236.02
987.59	236.03
987.89	236.04
988.18	235.97
988.47	235.97
988.76	235.96
989.05	235.98
989.34	235.94
989.63	236.05
989.92	236.05
990.22	236.01
990.51	236.06
990.80	236.06
991.09	236.05
991.38	236.07
991.67	236.06
991.96	236.01
992.25	235.97
992.54	235.93
992.83	235.96
993.12	235.95
993.41	236.05
993.70	236.05
993.99	236.09
994.28	236.12
994.58	236.19
994.87	236.17
995.16	236.12
995.45	236.11
995.74	236.04
996.03	236.02
996.32	236.08
996.61	236.15
996.90	236.09
997.19	236.07
997.48	236.08
997.77	236.08
998.06	236.12
998.34	236.11
998.63	236.12
998.92	236.10
999.21	236.16
999.50	236.15
999.79	236.14
1000.08	236.15
1000.37	236.18
1000.66	236.16
1000.95	236.22
1001.24	236.29
1001.53	236.33
1001.82	236.33
1002.11	236.33
1002.40	236.35
1002.68	236.39
1002.97	236.59
1003.26	236.62
1003.55	236.57
1003.84	236.60
1004.13	236.71
1004.42	236.74
1004.71	236.79
1004.99	236.83
1005.28	236.87
1005.57	236.88
1005.86	236.84
1006.15	236.76
1006.44	236.68
1006.72	236.68
1007.01	236.68
1007.30	236.71
1007.59	236.69
1007.88	236.69
1008.17	236.71
1008.45	236.65
1008.74	236.54
1009.03	236.46
1009.32	236.40
1009.60	236.46
1009.89	236.48
1010.18	236.43
1010.47	236.40
1010.76	236.33
1011.04	236.33
1011.33	236.28
1011.62	236.31
1011.91	236.37
1012.19	236.39
1012.48	236.47
1012.77	236.44
1013.05	236.54
1013.34	236.53
1013.63	236.52
1013.92	236.57
1014.20	236.52
1014.49	236.62
1014.78	236.62
1015.06	236.54
1015.35	236.62
1015.64	236.62
1015.92	236.65
1016.21	236.61
1016.50	236.63
1016.78	236.62
1017.07	236.66
1017.36	236.64
1017.64	236.56
1017.93	236.55
1018.22	236.53
1018.50	236.53
1018.79	236.52
1019.08	236.37
1019.36	236.34
1019.65	236.36
1019.93	236.38
1020.22	236.42
1020.51	236.44
1020.79	236.39
1021.08	236.13
1021.36	236.43
1021.65	236.37
1021.94	235.57
1022.22	235.67
1022.51	236.37
1022.79	237.80
1023.08	236.43
1023.36	238.47
1023.65	235.07
>>>>>End Processed Spectral Data<<<<<
