SpectraSuite Data File
++++++++++++++++++++++++++++++++++++
Date: Mon Oct 22 15:13:36 EDT 2012
User: group
Dark Spectrum Present: No
Reference Spectrum Present: No
Number of Sampled Component Spectra: 1
Spectrometers: USB2E7196
Integration Time (usec): 91000 (USB2E7196)
Spectra Averaged: 30 (USB2E7196)
Boxcar Smoothing: 10 (USB2E7196)
Correct for Electrical Dark: No (USB2E7196)
Strobe/Lamp Enabled: No (USB2E7196)
Correct for Detector Non-linearity: No (USB2E7196)
Correct for Stray Light: No (USB2E7196)
Number of Pixels in Processed Spectrum: 2048
>>>>>Begin Processed Spectral Data<<<<<
339.09	0.00
339.48	224.97
339.86	227.17
340.24	226.87
340.63	228.93
341.01	232.83
341.39	230.90
341.78	232.93
342.16	234.07
342.54	233.97
342.93	222.76
343.31	234.01
343.69	234.53
344.07	234.92
344.46	235.38
344.84	235.75
345.22	235.90
345.60	236.19
345.99	236.39
346.37	236.52
346.75	236.69
347.13	236.75
347.52	236.79
347.90	236.84
348.28	236.87
348.66	236.83
349.05	236.80
349.43	236.87
349.81	236.99
350.19	237.06
350.57	237.04
350.96	237.11
351.34	237.20
351.72	237.33
352.10	237.47
352.48	237.54
352.87	237.62
353.25	237.68
353.63	237.72
354.01	237.74
354.39	237.84
354.77	237.83
355.15	237.97
355.54	238.01
355.92	238.02
356.30	238.06
356.68	238.26
357.06	238.28
357.44	238.37
357.82	238.29
358.20	238.35
358.58	238.42
358.97	238.45
359.35	238.57
359.73	238.61
360.11	238.66
360.49	238.67
360.87	238.70
361.25	238.76
361.63	238.85
362.01	238.91
362.39	238.86
362.77	238.90
363.15	238.89
363.53	238.92
363.91	239.00
364.29	239.04
364.67	238.84
365.05	238.83
365.43	238.78
365.81	238.87
366.19	238.95
366.57	239.04
366.95	239.02
367.33	238.89
367.71	238.83
368.09	238.84
368.47	238.76
368.85	238.71
369.23	238.77
369.61	238.69
369.99	238.74
370.37	238.80
370.75	238.93
371.13	238.87
371.51	238.84
371.89	238.79
372.27	238.75
372.65	238.73
373.03	238.77
373.41	238.69
373.78	238.61
374.16	238.50
374.54	238.34
374.92	238.29
375.30	238.27
375.68	238.21
376.06	238.16
376.44	238.21
376.82	238.19
377.19	238.12
377.57	238.07
377.95	237.97
378.33	237.87
378.71	237.65
379.09	237.67
379.47	237.62
379.84	237.56
380.22	237.50
380.60	237.37
380.98	237.35
381.36	237.33
381.73	237.30
382.11	237.29
382.49	237.28
382.87	237.26
383.25	237.23
383.62	237.45
384.00	237.37
384.38	237.35
384.76	237.39
385.13	237.47
385.51	237.36
385.89	237.27
386.27	237.29
386.64	237.25
387.02	237.14
387.40	237.10
387.78	237.07
388.15	237.08
388.53	237.12
388.91	237.09
389.29	237.08
389.66	237.08
390.04	237.07
390.42	237.08
390.79	237.07
391.17	237.06
391.55	236.79
391.92	236.78
392.30	236.76
392.68	236.70
393.05	236.63
393.43	236.72
393.81	236.71
394.18	236.70
394.56	236.72
394.94	236.74
395.31	236.73
395.69	236.79
396.06	236.83
396.44	236.88
396.82	236.90
397.19	237.00
397.57	236.96
397.95	237.00
398.32	236.99
398.70	237.06
399.07	237.20
399.45	237.27
399.82	237.37
400.20	237.37
400.58	237.48
400.95	237.50
401.33	237.66
401.70	237.96
402.08	238.04
402.45	238.20
402.83	238.41
403.20	238.59
403.58	238.71
403.95	238.92
404.33	239.15
404.71	239.29
405.08	239.65
405.46	239.93
405.83	240.21
406.21	240.57
406.58	240.91
406.96	241.24
407.33	241.64
407.70	242.06
408.08	242.68
408.45	243.20
408.83	243.72
409.20	244.17
409.58	244.62
409.95	245.19
410.33	245.88
410.70	246.54
411.08	247.25
411.45	248.08
411.82	248.91
412.20	249.90
412.57	251.05
412.95	251.91
413.32	253.06
413.69	254.26
414.07	255.49
414.44	256.84
414.82	258.19
415.19	259.84
415.56	261.51
415.94	263.28
416.31	265.29
416.68	267.29
417.06	269.57
417.43	271.85
417.81	274.39
418.18	277.01
418.55	279.80
418.93	282.83
419.30	285.84
419.67	289.06
420.04	292.41
420.42	295.97
420.79	300.01
421.16	304.12
421.54	308.28
421.91	312.66
422.28	317.23
422.66	322.20
423.03	327.07
423.40	332.10
423.77	337.45
424.15	342.93
424.52	348.73
424.89	355.11
425.26	361.12
425.64	367.07
426.01	373.43
426.38	380.20
426.75	387.00
427.13	394.15
427.50	401.62
427.87	409.50
428.24	417.31
428.61	424.95
428.99	433.18
429.36	442.28
429.73	451.23
430.10	460.28
430.47	469.50
430.85	479.08
431.22	489.22
431.59	500.00
431.96	510.35
432.33	521.89
432.70	533.10
433.08	546.38
433.45	558.83
433.82	571.41
434.19	585.13
434.56	598.61
434.93	611.72
435.30	624.86
435.68	639.31
436.05	653.75
436.42	668.11
436.79	681.31
437.16	695.46
437.53	710.47
437.90	725.35
438.27	740.06
438.64	755.20
439.01	769.30
439.38	782.21
439.75	794.61
440.13	808.42
440.50	821.47
440.87	832.33
441.24	843.50
441.61	855.77
441.98	865.10
442.35	876.16
442.72	886.87
443.09	897.34
443.46	903.89
443.83	908.25
444.20	912.45
444.57	918.02
444.94	921.00
445.31	923.89
445.68	926.18
446.05	927.44
446.42	926.70
446.79	925.51
447.16	923.71
447.53	922.45
447.90	917.45
448.27	912.27
448.64	904.91
449.01	899.51
449.37	889.96
449.74	880.84
450.11	869.41
450.48	857.52
450.85	845.23
451.22	834.67
451.59	825.00
451.96	815.33
452.33	802.84
452.70	791.52
453.07	777.95
453.43	764.37
453.80	751.16
454.17	738.30
454.54	726.25
454.91	713.62
455.28	701.22
455.65	689.60
456.02	677.80
456.38	668.03
456.75	655.98
457.12	645.94
457.49	635.87
457.86	626.53
458.23	618.35
458.59	609.20
458.96	600.12
459.33	591.97
459.70	583.77
460.07	577.17
460.43	569.51
460.80	562.35
461.17	556.06
461.54	549.54
461.91	543.36
462.27	537.16
462.64	531.74
463.01	525.90
463.38	520.16
463.74	514.83
464.11	509.85
464.48	505.49
464.85	500.81
465.21	497.26
465.58	493.29
465.95	488.65
466.32	484.93
466.68	481.07
467.05	477.20
467.42	473.30
467.78	469.29
468.15	465.51
468.52	462.65
468.88	459.21
469.25	456.06
469.62	453.46
469.98	450.59
470.35	447.94
470.72	445.42
471.08	442.76
471.45	440.38
471.82	437.96
472.18	435.36
472.55	433.57
472.92	431.47
473.28	429.69
473.65	427.83
474.02	426.07
474.38	424.55
474.75	423.37
475.11	422.10
475.48	421.12
475.85	420.36
476.21	419.67
476.58	418.93
476.94	418.42
477.31	417.66
477.67	417.05
478.04	416.69
478.41	416.48
478.77	416.52
479.14	416.31
479.50	416.38
479.87	416.74
480.23	417.02
480.60	417.19
480.96	417.41
481.33	418.09
481.69	418.66
482.06	419.25
482.42	419.60
482.79	420.28
483.15	421.25
483.52	422.37
483.88	423.34
484.25	424.56
484.61	425.71
484.98	427.13
485.34	428.77
485.71	430.45
486.07	432.24
486.44	433.87
486.80	435.93
487.17	437.99
487.53	440.21
487.90	442.45
488.26	444.93
488.62	447.49
488.99	449.95
489.35	452.63
489.72	455.55
490.08	458.77
490.44	461.94
490.81	465.22
491.17	468.43
491.54	472.12
491.90	475.73
492.26	479.55
492.63	483.40
492.99	487.36
493.36	491.41
493.72	495.74
494.08	500.00
494.45	504.50
494.81	509.31
495.17	514.17
495.54	519.17
495.90	524.27
496.26	529.46
496.63	534.82
496.99	540.27
497.35	546.00
497.72	551.80
498.08	557.58
498.44	563.39
498.80	569.59
499.17	575.57
499.53	581.71
499.89	587.97
500.26	594.27
500.62	600.52
500.98	607.04
501.34	613.51
501.71	620.40
502.07	627.14
502.43	633.83
502.79	640.47
503.16	647.40
503.52	654.39
503.88	661.43
504.24	668.24
504.60	675.00
504.97	681.79
505.33	688.58
505.69	695.80
506.05	702.83
506.41	709.80
506.78	716.68
507.14	723.57
507.50	730.50
507.86	737.56
508.22	744.46
508.59	751.24
508.95	757.94
509.31	764.58
509.67	771.11
510.03	777.55
510.39	783.97
510.75	790.13
511.12	796.11
511.48	802.00
511.84	808.01
512.20	813.90
512.56	819.70
512.92	825.27
513.28	830.72
513.64	836.08
514.00	841.05
514.37	845.84
514.73	850.59
515.09	854.89
515.45	859.21
515.81	863.43
516.17	867.48
516.53	871.42
516.89	875.27
517.25	878.81
517.61	882.21
517.97	885.49
518.33	888.27
518.69	891.18
519.05	893.89
519.41	896.43
519.77	899.01
520.13	901.19
520.49	903.56
520.85	905.59
521.21	907.39
521.57	909.42
521.93	910.96
522.29	912.45
522.65	913.80
523.01	914.93
523.37	916.04
523.73	917.09
524.09	917.67
524.45	918.07
524.81	918.51
525.17	918.80
525.53	919.00
525.89	919.46
526.25	919.76
526.61	919.85
526.97	919.88
527.33	919.90
527.68	920.20
528.04	919.95
528.40	919.32
528.76	918.99
529.12	918.57
529.48	918.24
529.84	917.60
530.20	917.35
530.56	916.79
530.91	916.34
531.27	915.83
531.63	915.51
531.99	915.18
532.35	914.61
532.71	914.12
533.07	913.66
533.42	913.27
533.78	912.77
534.14	912.35
534.50	911.93
534.86	911.58
535.21	910.66
535.57	910.12
535.93	909.53
536.29	909.12
536.65	908.78
537.00	908.54
537.36	908.51
537.72	908.09
538.08	908.18
538.44	907.90
538.79	907.49
539.15	907.31
539.51	907.24
539.87	907.43
540.22	907.07
540.58	907.17
540.94	906.92
541.29	906.49
541.65	906.20
542.01	906.20
542.37	905.83
542.72	905.82
543.08	905.47
543.44	905.73
543.79	905.32
544.15	905.22
544.51	905.35
544.87	905.21
545.22	905.21
545.58	905.14
545.94	904.86
546.29	904.58
546.65	903.98
547.01	903.62
547.36	903.44
547.72	903.59
548.07	903.34
548.43	903.34
548.79	903.61
549.14	903.73
549.50	904.05
549.86	904.30
550.21	904.43
550.57	905.02
550.92	905.17
551.28	905.73
551.64	905.79
551.99	905.81
552.35	906.03
552.70	906.33
553.06	906.34
553.41	906.88
553.77	907.51
554.13	908.38
554.48	909.03
554.84	909.56
555.19	910.34
555.55	911.36
555.90	912.06
556.26	912.89
556.61	913.67
556.97	914.00
557.32	914.75
557.68	915.62
558.03	916.44
558.39	917.33
558.74	918.43
559.10	919.24
559.45	920.15
559.81	921.35
560.16	922.34
560.52	923.58
560.87	924.93
561.23	926.32
561.58	928.05
561.94	929.47
562.29	930.71
562.64	932.20
563.00	933.40
563.35	934.69
563.71	935.84
564.06	936.94
564.42	938.03
564.77	938.96
565.12	940.03
565.48	941.54
565.83	942.90
566.19	944.36
566.54	946.02
566.89	947.42
567.25	948.64
567.60	950.12
567.96	951.31
568.31	952.28
568.66	953.07
569.02	953.73
569.37	954.26
569.72	954.82
570.08	955.31
570.43	955.73
570.78	956.40
571.14	956.92
571.49	957.36
571.84	958.31
572.20	959.16
572.55	960.07
572.90	960.18
573.26	960.36
573.61	960.26
573.96	959.97
574.31	959.85
574.67	959.59
575.02	959.11
575.37	958.93
575.72	958.68
576.08	958.58
576.43	958.04
576.78	957.94
577.13	958.02
577.49	957.86
577.84	957.91
578.19	957.81
578.54	957.54
578.90	957.59
579.25	956.95
579.60	956.20
579.95	955.05
580.30	954.64
580.66	954.31
581.01	953.90
581.36	953.44
581.71	953.08
582.06	952.86
582.42	952.46
582.77	951.54
583.12	950.86
583.47	950.30
583.82	949.62
584.17	948.49
584.53	947.67
584.88	946.73
585.23	945.61
585.58	944.50
585.93	943.38
586.28	942.07
586.63	940.74
586.98	939.61
587.34	938.71
587.69	936.93
588.04	935.21
588.39	933.46
588.74	931.54
589.09	929.86
589.44	927.96
589.79	926.35
590.14	924.99
590.49	923.17
590.84	921.22
591.19	919.63
591.54	917.91
591.89	915.54
592.25	913.34
592.60	910.89
592.95	908.35
593.30	906.17
593.65	903.97
594.00	902.10
594.35	900.87
594.70	898.75
595.05	896.98
595.40	894.78
595.75	892.42
596.10	890.63
596.45	888.16
596.80	885.75
597.15	883.22
597.50	880.68
597.85	878.71
598.19	876.32
598.54	873.59
598.89	871.27
599.24	869.29
599.59	866.99
599.94	864.91
600.29	862.74
600.64	860.43
600.99	858.04
601.34	855.44
601.69	851.99
602.04	849.33
602.39	846.62
602.74	844.19
603.08	841.82
603.43	839.18
603.78	836.78
604.13	834.50
604.48	832.40
604.83	830.15
605.18	827.71
605.53	825.56
605.87	823.66
606.22	822.06
606.57	820.60
606.92	819.37
607.27	818.32
607.62	817.19
607.96	815.88
608.31	814.50
608.66	813.16
609.01	811.71
609.36	809.88
609.70	807.98
610.05	805.97
610.40	804.04
610.75	802.09
611.10	800.14
611.44	797.57
611.79	795.07
612.14	792.58
612.49	789.67
612.83	786.78
613.18	783.69
613.53	780.00
613.88	775.99
614.22	771.93
614.57	767.44
614.92	763.04
615.27	759.00
615.61	754.87
615.96	750.98
616.31	747.19
616.65	743.72
617.00	740.16
617.35	736.82
617.70	733.40
618.04	729.87
618.39	726.56
618.74	723.63
619.08	720.29
619.43	716.94
619.78	713.72
620.12	710.55
620.47	707.57
620.82	704.64
621.16	701.58
621.51	698.67
621.85	695.92
622.20	693.15
622.55	690.09
622.89	687.45
623.24	684.66
623.59	681.78
623.93	678.80
624.28	675.77
624.62	672.78
624.97	669.79
625.32	666.85
625.66	663.70
626.01	660.89
626.35	658.32
626.70	655.64
627.04	653.35
627.39	650.83
627.73	648.17
628.08	645.53
628.43	642.77
628.77	639.86
629.12	636.98
629.46	634.38
629.81	631.53
630.15	628.62
630.50	625.78
630.84	623.10
631.19	620.38
631.53	617.78
631.88	614.97
632.22	612.28
632.57	610.01
632.91	607.42
633.26	604.52
633.60	601.41
633.95	598.50
634.29	595.24
634.64	592.20
634.98	589.00
635.32	586.12
635.67	583.52
636.01	580.76
636.36	577.95
636.70	575.15
637.05	572.55
637.39	569.99
637.73	567.24
638.08	564.59
638.42	562.06
638.77	559.38
639.11	556.85
639.45	554.22
639.80	551.26
640.14	548.69
640.49	546.15
640.83	543.77
641.17	541.41
641.52	539.17
641.86	536.90
642.20	535.04
642.55	532.84
642.89	530.69
643.23	528.58
643.58	526.68
643.92	524.54
644.26	522.24
644.61	520.04
644.95	517.88
645.29	515.61
645.64	513.43
645.98	511.57
646.32	509.60
646.66	507.31
647.01	505.33
647.35	503.47
647.69	501.40
648.04	499.53
648.38	497.51
648.72	495.43
649.06	493.29
649.41	490.93
649.75	488.80
650.09	486.76
650.43	484.77
650.78	482.55
651.12	480.36
651.46	478.52
651.80	476.47
652.14	474.52
652.49	472.59
652.83	470.40
653.17	468.03
653.51	465.83
653.85	463.91
654.20	461.83
654.54	459.60
654.88	457.66
655.22	455.48
655.56	453.52
655.90	451.54
656.25	449.67
656.59	447.87
656.93	445.92
657.27	443.99
657.61	441.95
657.95	440.17
658.29	438.40
658.64	436.53
658.98	434.59
659.32	432.63
659.66	430.75
660.00	428.97
660.34	427.27
660.68	425.41
661.02	423.52
661.36	421.78
661.70	420.07
662.05	418.29
662.39	416.62
662.73	414.87
663.07	413.24
663.41	411.49
663.75	409.70
664.09	408.16
664.43	406.42
664.77	404.87
665.11	403.20
665.45	401.54
665.79	399.99
666.13	398.43
666.47	396.91
666.81	395.36
667.15	393.77
667.49	392.30
667.83	390.94
668.17	389.57
668.51	388.10
668.85	386.67
669.19	385.31
669.53	383.96
669.87	382.44
670.21	380.99
670.55	379.57
670.89	378.38
671.23	376.98
671.57	375.62
671.91	374.30
672.25	372.99
672.58	371.82
672.92	370.46
673.26	369.19
673.60	367.87
673.94	366.65
674.28	365.46
674.62	364.28
674.96	362.99
675.30	361.76
675.64	360.61
675.97	359.36
676.31	358.14
676.65	356.90
676.99	355.95
677.33	354.73
677.67	353.66
678.01	352.49
678.34	351.43
678.68	350.41
679.02	349.28
679.36	348.17
679.70	347.06
680.04	346.01
680.37	344.87
680.71	343.89
681.05	342.88
681.39	341.82
681.73	340.77
682.06	339.79
682.40	338.91
682.74	337.97
683.08	337.15
683.42	336.16
683.75	335.30
684.09	334.25
684.43	333.40
684.77	332.37
685.10	331.40
685.44	330.38
685.78	329.45
686.12	328.43
686.45	327.48
686.79	326.49
687.13	325.60
687.46	324.93
687.80	324.07
688.14	323.10
688.48	322.35
688.81	321.56
689.15	320.81
689.49	319.97
689.82	319.05
690.16	318.13
690.50	317.38
690.83	316.50
691.17	315.64
691.51	314.84
691.84	314.07
692.18	313.17
692.52	312.33
692.85	311.57
693.19	310.94
693.52	310.22
693.86	309.47
694.20	308.75
694.53	307.91
694.87	307.18
695.21	306.45
695.54	305.68
695.88	304.82
696.21	304.00
696.55	303.23
696.88	302.55
697.22	301.83
697.56	301.13
697.89	300.53
698.23	299.94
698.56	299.27
698.90	298.78
699.23	298.17
699.57	297.67
699.90	297.04
700.24	296.34
700.58	295.74
700.91	295.21
701.25	294.80
701.58	294.26
701.92	293.76
702.25	293.28
702.59	292.77
702.92	292.33
703.26	291.93
703.59	291.48
703.93	291.16
704.26	290.75
704.60	290.23
704.93	289.74
705.26	289.22
705.60	288.73
705.93	288.20
706.27	287.87
706.60	287.42
706.94	287.03
707.27	286.60
707.61	286.15
707.94	285.69
708.27	285.16
708.61	284.64
708.94	284.16
709.28	283.68
709.61	283.13
709.94	282.59
710.28	282.02
710.61	281.53
710.95	280.76
711.28	280.33
711.61	279.79
711.95	279.17
712.28	278.64
712.61	278.17
712.95	277.75
713.28	277.28
713.61	276.73
713.95	276.14
714.28	275.72
714.61	275.20
714.95	274.66
715.28	274.10
715.61	273.65
715.95	273.11
716.28	272.60
716.61	272.20
716.95	271.80
717.28	271.33
717.61	270.88
717.94	270.54
718.28	270.05
718.61	269.76
718.94	269.44
719.27	269.04
719.61	268.74
719.94	268.31
720.27	267.87
720.60	267.52
720.94	267.18
721.27	266.77
721.60	266.48
721.93	266.23
722.27	265.94
722.60	265.68
722.93	265.41
723.26	265.12
723.59	264.82
723.93	264.55
724.26	264.32
724.59	264.01
724.92	263.77
725.25	263.51
725.59	263.22
725.92	263.02
726.25	262.78
726.58	262.49
726.91	262.23
727.24	261.99
727.57	261.67
727.91	261.42
728.24	261.27
728.57	261.03
728.90	260.77
729.23	260.51
729.56	260.42
729.89	260.17
730.22	259.96
730.55	259.78
730.89	259.55
731.22	259.28
731.55	259.07
731.88	258.81
732.21	258.48
732.54	258.20
732.87	258.04
733.20	257.85
733.53	257.68
733.86	257.47
734.19	257.23
734.52	257.11
734.85	257.03
735.18	256.74
735.51	256.68
735.84	256.51
736.17	256.35
736.50	255.95
736.83	256.01
737.16	255.82
737.49	255.59
737.82	255.40
738.15	255.26
738.48	255.06
738.81	254.85
739.14	254.72
739.47	254.53
739.80	254.22
740.13	254.00
740.46	253.78
740.79	253.57
741.12	253.36
741.45	253.12
741.78	252.84
742.11	252.74
742.44	252.51
742.77	252.34
743.10	252.13
743.43	252.01
743.75	251.62
744.08	251.73
744.41	251.54
744.74	251.36
745.07	251.11
745.40	250.98
745.73	250.95
746.06	250.79
746.39	250.70
746.71	250.54
747.04	250.39
747.37	250.24
747.70	250.19
748.03	250.06
748.36	249.95
748.68	249.80
749.01	249.60
749.34	249.42
749.67	249.32
750.00	249.23
750.33	249.32
750.65	249.25
750.98	248.89
751.31	248.79
751.64	248.65
751.97	248.67
752.29	248.55
752.62	248.33
752.95	248.20
753.28	248.08
753.60	248.01
753.93	247.98
754.26	247.83
754.59	247.62
754.91	247.53
755.24	247.42
755.57	247.30
755.90	247.17
756.22	247.02
756.55	246.82
756.88	246.64
757.20	246.31
757.53	246.11
757.86	246.02
758.19	245.91
758.51	245.80
758.84	245.64
759.17	245.52
759.49	245.45
759.82	245.47
760.15	245.31
760.47	245.16
760.80	245.01
761.13	244.97
761.45	244.83
761.78	244.74
762.11	244.65
762.43	244.48
762.76	244.37
763.08	244.30
763.41	244.24
763.74	244.18
764.06	244.08
764.39	244.02
764.71	243.94
765.04	243.81
765.37	243.73
765.69	243.60
766.02	243.55
766.34	243.42
766.67	243.18
767.00	243.18
767.32	243.29
767.65	243.37
767.97	243.25
768.30	243.19
768.62	243.06
768.95	242.95
769.27	242.99
769.60	242.98
769.92	242.89
770.25	242.77
770.57	242.66
770.90	242.60
771.22	242.49
771.55	242.41
771.87	242.34
772.20	242.28
772.52	242.40
772.85	242.56
773.17	242.51
773.50	242.44
773.82	242.32
774.15	242.06
774.47	241.87
774.80	241.76
775.12	241.63
775.45	241.63
775.77	241.59
776.09	241.52
776.42	241.45
776.74	241.42
777.07	241.35
777.39	241.33
777.72	241.23
778.04	241.18
778.36	241.06
778.69	241.07
779.01	240.97
779.33	240.73
779.66	240.43
779.98	240.32
780.31	240.27
780.63	240.36
780.95	240.33
781.28	240.24
781.60	240.24
781.92	240.29
782.25	240.23
782.57	240.22
782.89	240.13
783.22	240.11
783.54	240.08
783.86	240.13
784.19	240.10
784.51	240.18
784.83	240.10
785.16	240.12
785.48	240.09
785.80	240.09
786.12	240.09
786.45	240.09
786.77	240.17
787.09	240.14
787.42	240.04
787.74	240.08
788.06	240.07
788.38	240.00
788.71	239.89
789.03	239.83
789.35	239.85
789.67	239.81
789.99	239.78
790.32	239.73
790.64	239.67
790.96	239.80
791.28	239.68
791.61	239.73
791.93	239.76
792.25	239.69
792.57	239.81
792.89	239.72
793.21	239.68
793.54	239.62
793.86	239.67
794.18	239.64
794.50	239.58
794.82	239.55
795.14	239.55
795.47	239.63
795.79	239.69
796.11	239.55
796.43	239.54
796.75	239.56
797.07	239.63
797.39	239.61
797.71	239.47
798.04	239.46
798.36	239.46
798.68	239.43
799.00	239.50
799.32	239.43
799.64	239.45
799.96	239.46
800.28	239.48
800.60	239.40
800.92	239.41
801.24	239.40
801.56	239.43
801.89	239.45
802.21	239.43
802.53	239.35
802.85	239.39
803.17	239.49
803.49	239.44
803.81	239.32
804.13	239.30
804.45	239.25
804.77	239.24
805.09	239.14
805.41	239.05
805.73	239.02
806.05	238.91
806.37	238.86
806.69	238.82
807.01	238.80
807.33	238.79
807.65	238.71
807.97	238.77
808.28	238.72
808.60	238.69
808.92	238.69
809.24	238.79
809.56	238.70
809.88	238.57
810.20	238.54
810.52	238.57
810.84	238.52
811.16	238.42
811.48	238.36
811.80	238.45
812.12	238.43
812.43	238.37
812.75	238.37
813.07	238.37
813.39	238.32
813.71	238.22
814.03	238.18
814.35	238.13
814.67	237.99
814.98	237.94
815.30	237.91
815.62	237.82
815.94	237.69
816.26	237.71
816.58	237.72
816.89	237.71
817.21	237.62
817.53	237.62
817.85	237.64
818.17	237.60
818.48	237.46
818.80	237.50
819.12	237.48
819.44	237.47
819.76	237.40
820.07	237.40
820.39	237.37
820.71	237.37
821.03	237.36
821.34	237.34
821.66	237.36
821.98	237.33
822.30	237.31
822.61	237.38
822.93	237.35
823.25	237.29
823.57	237.27
823.88	237.28
824.20	237.27
824.52	237.26
824.83	237.29
825.15	237.32
825.47	237.21
825.79	237.26
826.10	237.16
826.42	237.17
826.74	237.15
827.05	237.09
827.37	237.08
827.69	237.09
828.00	237.10
828.32	237.10
828.64	237.03
828.95	237.16
829.27	237.09
829.58	237.10
829.90	237.13
830.22	237.10
830.53	237.13
830.85	237.10
831.17	237.13
831.48	237.09
831.80	237.08
832.11	237.14
832.43	237.01
832.75	237.04
833.06	237.13
833.38	237.11
833.69	237.09
834.01	237.14
834.32	237.12
834.64	237.14
834.96	237.13
835.27	237.19
835.59	237.11
835.90	237.09
836.22	237.03
836.53	237.05
836.85	236.99
837.16	237.17
837.48	237.16
837.79	237.19
838.11	237.19
838.42	237.23
838.74	237.27
839.05	237.31
839.37	237.37
839.68	237.30
840.00	237.32
840.31	237.44
840.63	237.42
840.94	237.46
841.26	237.39
841.57	237.34
841.88	237.38
842.20	237.35
842.51	237.34
842.83	237.34
843.14	237.47
843.46	237.57
843.77	237.43
844.08	237.40
844.40	237.34
844.71	237.35
845.03	237.32
845.34	237.31
845.65	237.28
845.97	237.24
846.28	237.22
846.60	237.27
846.91	237.21
847.22	237.18
847.54	237.20
847.85	237.26
848.16	237.30
848.48	237.20
848.79	237.25
849.10	237.32
849.42	237.36
849.73	237.19
850.04	237.09
850.36	237.03
850.67	237.09
850.98	237.07
851.30	237.07
851.61	237.02
851.92	237.00
852.23	237.09
852.55	237.11
852.86	237.11
853.17	237.10
853.49	237.13
853.80	237.20
854.11	237.22
854.42	237.22
854.74	237.19
855.05	237.18
855.36	237.12
855.67	237.07
855.99	237.06
856.30	237.34
856.61	237.34
856.92	237.35
857.23	237.30
857.55	237.26
857.86	237.28
858.17	237.37
858.48	237.31
858.79	237.26
859.11	237.25
859.42	237.22
859.73	237.21
860.04	237.17
860.35	237.04
860.66	236.96
860.98	236.93
861.29	236.97
861.60	236.99
861.91	237.02
862.22	237.02
862.53	237.02
862.84	236.75
863.16	236.80
863.47	236.75
863.78	236.83
864.09	236.93
864.40	236.90
864.71	236.87
865.02	236.90
865.33	236.81
865.64	236.73
865.95	236.71
866.27	236.86
866.58	236.86
866.89	236.91
867.20	236.90
867.51	236.83
867.82	236.76
868.13	236.82
868.44	236.79
868.75	236.78
869.06	236.78
869.37	236.73
869.68	236.67
869.99	236.75
870.30	236.70
870.61	236.66
870.92	236.58
871.23	236.58
871.54	236.59
871.85	236.67
872.16	236.70
872.47	236.69
872.78	236.47
873.09	236.49
873.40	236.47
873.71	236.46
874.02	236.48
874.33	236.47
874.64	236.40
874.95	236.40
875.26	236.36
875.56	236.38
875.87	236.44
876.18	236.40
876.49	236.57
876.80	236.56
877.11	236.56
877.42	236.64
877.73	236.56
878.04	236.52
878.35	236.51
878.66	236.53
878.96	236.56
879.27	236.58
879.58	236.55
879.89	236.53
880.20	236.58
880.51	236.61
880.82	236.66
881.12	236.67
881.43	236.62
881.74	236.58
882.05	236.53
882.36	236.51
882.67	236.50
882.97	236.30
883.28	236.25
883.59	236.26
883.90	236.20
884.21	236.25
884.51	236.27
884.82	236.25
885.13	236.26
885.44	236.20
885.74	236.26
886.05	236.27
886.36	236.37
886.67	236.40
886.98	236.51
887.28	236.52
887.59	236.54
887.90	236.57
888.20	236.60
888.51	236.65
888.82	236.55
889.13	236.66
889.43	236.77
889.74	236.75
890.05	236.73
890.35	236.73
890.66	236.70
890.97	236.74
891.28	236.72
891.58	236.72
891.89	236.80
892.20	236.72
892.50	236.73
892.81	236.67
893.12	236.55
893.42	236.43
893.73	236.40
894.04	236.37
894.34	236.40
894.65	236.36
894.95	236.34
895.26	236.42
895.57	236.50
895.87	236.36
896.18	236.46
896.48	236.48
896.79	236.52
897.10	236.56
897.40	236.51
897.71	236.53
898.01	236.50
898.32	236.55
898.63	236.54
898.93	236.56
899.24	236.58
899.54	236.65
899.85	236.67
900.15	236.70
900.46	236.73
900.76	236.76
901.07	236.79
901.38	236.73
901.68	236.74
901.99	236.64
902.29	236.65
902.60	236.63
902.90	236.58
903.21	236.60
903.51	236.57
903.82	236.61
904.12	236.65
904.43	236.68
904.73	236.64
905.03	236.72
905.34	236.89
905.64	236.89
905.95	236.80
906.25	236.79
906.56	236.81
906.86	236.79
907.17	236.70
907.47	236.70
907.77	236.76
908.08	236.80
908.38	236.79
908.69	236.79
908.99	236.88
909.30	236.93
909.60	236.98
909.90	237.05
910.21	236.98
910.51	236.90
910.81	236.89
911.12	236.89
911.42	236.83
911.73	236.62
912.03	236.63
912.33	236.74
912.64	236.72
912.94	236.64
913.24	236.58
913.55	236.61
913.85	236.63
914.15	236.60
914.46	236.55
914.76	236.51
915.06	236.50
915.37	236.42
915.67	236.42
915.97	236.36
916.27	236.25
916.58	236.28
916.88	236.36
917.18	236.34
917.49	236.54
917.79	236.55
918.09	236.62
918.39	236.65
918.70	236.61
919.00	236.65
919.30	236.80
919.60	236.83
919.91	236.80
920.21	236.80
920.51	236.81
920.81	236.82
921.12	236.88
921.42	236.88
921.72	236.87
922.02	236.87
922.32	236.90
922.63	236.93
922.93	237.01
923.23	237.00
923.53	236.98
923.83	236.77
924.13	236.78
924.44	236.73
924.74	236.80
925.04	236.80
925.34	236.75
925.64	236.63
925.94	236.67
926.24	236.82
926.55	236.74
926.85	236.80
927.15	236.74
927.45	236.73
927.75	236.63
928.05	236.67
928.35	236.61
928.65	236.60
928.95	236.65
929.26	236.55
929.56	236.59
929.86	236.59
930.16	236.66
930.46	236.62
930.76	236.55
931.06	236.43
931.36	236.39
931.66	236.40
931.96	236.43
932.26	236.36
932.56	236.26
932.86	236.33
933.16	236.27
933.46	236.33
933.76	236.26
934.06	236.37
934.36	236.35
934.66	236.35
934.96	236.33
935.26	236.28
935.56	236.32
935.86	236.23
936.16	236.22
936.46	236.10
936.76	236.11
937.06	236.12
937.36	236.07
937.66	236.12
937.96	236.18
938.26	236.14
938.56	236.16
938.86	236.15
939.16	236.19
939.46	236.17
939.76	236.09
940.06	236.13
940.35	236.07
940.65	236.02
940.95	236.10
941.25	235.98
941.55	235.96
941.85	235.92
942.15	235.99
942.45	236.05
942.75	236.08
943.04	236.14
943.34	236.18
943.64	236.18
943.94	236.14
944.24	236.12
944.54	236.18
944.84	236.20
945.13	236.19
945.43	236.19
945.73	236.22
946.03	236.25
946.33	236.24
946.62	236.27
946.92	236.27
947.22	236.27
947.52	236.36
947.82	236.39
948.11	236.41
948.41	236.36
948.71	236.33
949.01	236.36
949.31	236.29
949.60	236.29
949.90	236.37
950.20	236.36
950.50	236.36
950.79	236.31
951.09	236.30
951.39	236.38
951.69	236.29
951.98	236.34
952.28	236.38
952.58	236.35
952.87	236.34
953.17	236.32
953.47	236.27
953.76	236.31
954.06	236.33
954.36	236.30
954.66	236.30
954.95	236.35
955.25	236.42
955.55	236.51
955.84	236.50
956.14	236.48
956.44	236.47
956.73	236.43
957.03	236.46
957.32	236.47
957.62	236.39
957.92	236.46
958.21	236.44
958.51	236.73
958.81	236.85
959.10	236.92
959.40	236.97
959.69	236.98
959.99	236.94
960.29	236.91
960.58	236.89
960.88	236.91
961.17	236.87
961.47	236.83
961.76	236.80
962.06	236.84
962.36	236.85
962.65	236.93
962.95	236.97
963.24	236.94
963.54	236.96
963.83	236.94
964.13	236.97
964.42	236.87
964.72	236.65
965.01	236.57
965.31	236.51
965.60	236.47
965.90	236.64
966.19	236.61
966.49	236.62
966.78	236.61
967.08	236.61
967.37	236.56
967.67	236.51
967.96	236.55
968.26	236.46
968.55	236.43
968.85	236.37
969.14	236.35
969.43	236.32
969.73	236.28
970.02	236.28
970.32	236.24
970.61	236.32
970.91	236.21
971.20	236.15
971.49	236.10
971.79	236.15
972.08	235.97
972.38	236.03
972.67	236.02
972.96	236.04
973.26	236.05
973.55	236.17
973.85	236.13
974.14	236.07
974.43	236.10
974.73	236.04
975.02	236.05
975.31	236.05
975.61	236.09
975.90	236.08
976.19	236.08
976.49	236.11
976.78	236.06
977.07	236.03
977.37	236.02
977.66	236.06
977.95	236.05
978.24	236.05
978.54	236.06
978.83	236.00
979.12	236.01
979.42	235.97
979.71	235.88
980.00	235.92
980.29	235.91
980.59	235.87
980.88	235.98
981.17	235.96
981.46	235.95
981.76	235.91
982.05	236.01
982.34	236.00
982.63	235.95
982.93	235.96
983.22	236.04
983.51	236.08
983.80	236.08
984.09	236.10
984.39	236.14
984.68	236.12
984.97	236.14
985.26	236.11
985.55	236.20
985.85	236.20
986.14	236.20
986.43	236.22
986.72	236.23
987.01	236.14
987.30	236.14
987.59	236.15
987.89	236.13
988.18	235.99
988.47	236.02
988.76	236.03
989.05	236.01
989.34	236.04
989.63	236.10
989.92	236.15
990.22	236.12
990.51	236.07
990.80	236.05
991.09	236.06
991.38	236.07
991.67	235.97
991.96	235.93
992.25	235.89
992.54	235.90
992.83	235.87
993.12	235.86
993.41	235.89
993.70	235.96
993.99	236.02
994.28	236.04
994.58	236.04
994.87	236.00
995.16	236.03
995.45	235.99
995.74	235.93
996.03	235.90
996.32	235.89
996.61	235.97
996.90	236.01
997.19	236.06
997.48	236.08
997.77	236.12
998.06	236.09
998.34	236.13
998.63	236.08
998.92	236.17
999.21	236.24
999.50	236.24
999.79	236.15
1000.08	236.10
1000.37	236.08
1000.66	236.10
1000.95	236.20
1001.24	236.21
1001.53	236.23
1001.82	236.23
1002.11	236.21
1002.40	236.23
1002.68	236.20
1002.97	236.33
1003.26	236.31
1003.55	236.27
1003.84	236.27
1004.13	236.40
1004.42	236.39
1004.71	236.40
1004.99	236.36
1005.28	236.36
1005.57	236.35
1005.86	236.35
1006.15	236.38
1006.44	236.45
1006.72	236.41
1007.01	236.30
1007.30	236.31
1007.59	236.30
1007.88	236.26
1008.17	236.25
1008.45	236.21
1008.74	236.20
1009.03	236.07
1009.32	236.04
1009.60	236.07
1009.89	236.10
1010.18	235.97
1010.47	236.03
1010.76	236.02
1011.04	235.98
1011.33	235.97
1011.62	236.01
1011.91	236.07
1012.19	236.11
1012.48	236.11
1012.77	236.12
1013.05	236.28
1013.34	236.31
1013.63	236.31
1013.92	236.44
1014.20	236.45
1014.49	236.47
1014.78	236.46
1015.06	236.40
1015.35	236.40
1015.64	236.45
1015.92	236.43
1016.21	236.49
1016.50	236.48
1016.78	236.52
1017.07	236.59
1017.36	236.57
1017.64	236.54
1017.93	236.57
1018.22	236.57
1018.50	236.54
1018.79	236.59
1019.08	236.50
1019.36	236.47
1019.65	236.41
1019.93	236.36
1020.22	236.33
1020.51	236.42
1020.79	236.42
1021.08	236.57
1021.36	236.13
1021.65	237.20
1021.94	236.60
1022.22	236.03
1022.51	235.43
1022.79	236.53
1023.08	235.50
1023.36	238.43
1023.65	235.83
>>>>>End Processed Spectral Data<<<<<
