"Storage 152531 - RawData - C:\Documents and Settings\user\My Documents\Adam_Hughes\11_5_12\25nm_np\NPConcentration\File_121105_152531.spc"
"Wavelength nm.","Abs."
400.00000,0.24374
400.50000,0.24303
401.00000,0.24040
401.50000,0.24138
402.00000,0.24162
402.50000,0.23882
403.00000,0.23528
403.50000,0.24327
404.00000,0.23999
404.50000,0.24312
405.00000,0.23915
405.50000,0.24191
406.00000,0.24124
406.50000,0.24246
407.00000,0.23929
407.50000,0.24014
408.00000,0.23654
408.50000,0.23718
409.00000,0.23680
409.50000,0.23848
410.00000,0.23648
410.50000,0.23779
411.00000,0.23878
411.50000,0.23625
412.00000,0.23564
412.50000,0.23466
413.00000,0.23566
413.50000,0.23439
414.00000,0.23361
414.50000,0.23492
415.00000,0.23529
415.50000,0.23683
416.00000,0.23558
416.50000,0.23553
417.00000,0.23509
417.50000,0.23428
418.00000,0.23814
418.50000,0.23703
419.00000,0.23442
419.50000,0.23430
420.00000,0.23752
420.50000,0.23404
421.00000,0.23366
421.50000,0.23486
422.00000,0.23824
422.50000,0.23599
423.00000,0.23808
423.50000,0.23413
424.00000,0.23001
424.50000,0.23335
425.00000,0.23410
425.50000,0.23296
426.00000,0.23286
426.50000,0.23169
427.00000,0.23116
427.50000,0.23347
428.00000,0.23244
428.50000,0.23109
429.00000,0.23112
429.50000,0.23126
430.00000,0.22955
430.50000,0.22978
431.00000,0.23117
431.50000,0.23027
432.00000,0.23109
432.50000,0.23233
433.00000,0.23398
433.50000,0.23553
434.00000,0.23340
434.50000,0.23106
435.00000,0.22975
435.50000,0.23126
436.00000,0.23340
436.50000,0.23473
437.00000,0.23248
437.50000,0.23235
438.00000,0.23535
438.50000,0.23274
439.00000,0.23280
439.50000,0.22981
440.00000,0.23032
440.50000,0.23070
441.00000,0.22952
441.50000,0.22893
442.00000,0.22939
442.50000,0.23050
443.00000,0.22780
443.50000,0.22990
444.00000,0.22775
444.50000,0.23091
445.00000,0.23250
445.50000,0.22932
446.00000,0.23274
446.50000,0.23131
447.00000,0.23347
447.50000,0.23244
448.00000,0.23187
448.50000,0.23528
449.00000,0.23160
449.50000,0.23274
450.00000,0.23250
450.50000,0.23177
451.00000,0.23154
451.50000,0.23369
452.00000,0.23091
452.50000,0.23253
453.00000,0.23125
453.50000,0.23131
454.00000,0.23207
454.50000,0.23140
455.00000,0.23241
455.50000,0.23361
456.00000,0.23798
456.50000,0.23598
457.00000,0.23311
457.50000,0.23351
458.00000,0.23389
458.50000,0.23448
459.00000,0.23395
459.50000,0.23206
460.00000,0.23627
460.50000,0.23523
461.00000,0.23567
461.50000,0.23619
462.00000,0.23694
462.50000,0.23846
463.00000,0.23724
463.50000,0.23720
464.00000,0.23918
464.50000,0.23955
465.00000,0.24071
465.50000,0.23961
466.00000,0.24123
466.50000,0.24277
467.00000,0.24100
467.50000,0.24103
468.00000,0.24185
468.50000,0.24301
469.00000,0.24310
469.50000,0.24480
470.00000,0.24445
470.50000,0.24626
471.00000,0.24591
471.50000,0.24734
472.00000,0.24698
472.50000,0.24734
473.00000,0.24635
473.50000,0.24675
474.00000,0.24870
474.50000,0.24768
475.00000,0.24879
475.50000,0.24768
476.00000,0.25154
476.50000,0.25082
477.00000,0.25383
477.50000,0.25334
478.00000,0.25613
478.50000,0.25490
479.00000,0.25676
479.50000,0.25752
480.00000,0.25909
480.50000,0.26021
481.00000,0.26147
481.50000,0.26530
482.00000,0.26514
482.50000,0.26767
483.00000,0.26869
483.50000,0.26903
484.00000,0.27106
484.50000,0.27208
485.00000,0.27370
485.50000,0.27443
486.00000,0.27777
486.50000,0.27730
487.00000,0.27866
487.50000,0.28026
488.00000,0.28185
488.50000,0.28380
489.00000,0.28658
489.50000,0.28737
490.00000,0.28926
490.50000,0.29233
491.00000,0.29355
491.50000,0.29614
492.00000,0.29887
492.50000,0.30080
493.00000,0.30276
493.50000,0.30588
494.00000,0.30823
494.50000,0.31027
495.00000,0.31145
495.50000,0.31557
496.00000,0.31921
496.50000,0.32072
497.00000,0.32484
497.50000,0.32741
498.00000,0.32947
498.50000,0.33179
499.00000,0.33482
499.50000,0.33807
500.00000,0.33934
500.50000,0.34256
501.00000,0.34583
501.50000,0.34743
502.00000,0.35049
502.50000,0.35362
503.00000,0.35556
503.50000,0.35898
504.00000,0.36272
504.50000,0.36536
505.00000,0.37036
505.50000,0.37332
506.00000,0.37386
506.50000,0.37843
507.00000,0.38026
507.50000,0.37999
508.00000,0.38422
508.50000,0.38644
509.00000,0.38870
509.50000,0.39185
510.00000,0.39636
510.50000,0.39822
511.00000,0.39890
511.50000,0.40256
512.00000,0.40460
512.50000,0.40649
513.00000,0.40822
513.50000,0.41180
514.00000,0.41245
514.50000,0.41542
515.00000,0.41734
515.50000,0.41959
516.00000,0.42130
516.50000,0.42294
517.00000,0.42297
517.50000,0.42387
518.00000,0.42517
518.50000,0.42899
519.00000,0.42989
519.50000,0.43146
520.00000,0.43120
520.50000,0.43161
521.00000,0.43350
521.50000,0.43538
522.00000,0.43510
522.50000,0.43434
523.00000,0.43410
523.50000,0.43332
524.00000,0.43520
524.50000,0.43495
525.00000,0.43521
525.50000,0.43275
526.00000,0.43214
526.50000,0.42909
527.00000,0.43195
527.50000,0.43097
528.00000,0.43159
528.50000,0.43082
529.00000,0.42731
529.50000,0.42767
530.00000,0.42453
530.50000,0.42279
531.00000,0.42291
531.50000,0.42055
532.00000,0.42133
532.50000,0.41920
533.00000,0.41446
533.50000,0.41330
534.00000,0.40984
534.50000,0.40860
535.00000,0.40503
535.50000,0.40295
536.00000,0.40068
536.50000,0.39842
537.00000,0.39745
537.50000,0.39247
538.00000,0.39087
538.50000,0.38693
539.00000,0.38341
539.50000,0.37990
540.00000,0.37730
540.50000,0.37607
541.00000,0.36963
541.50000,0.36839
542.00000,0.36536
542.50000,0.36162
543.00000,0.35712
543.50000,0.35388
544.00000,0.35057
544.50000,0.34624
545.00000,0.34293
545.50000,0.33882
546.00000,0.33763
546.50000,0.33331
547.00000,0.33101
547.50000,0.32516
548.00000,0.32451
548.50000,0.31815
549.00000,0.31490
549.50000,0.31155
550.00000,0.30789
550.50000,0.30347
551.00000,0.30046
551.50000,0.29611
552.00000,0.29266
552.50000,0.28983
553.00000,0.28589
553.50000,0.28169
554.00000,0.28035
554.50000,0.27713
555.00000,0.27344
555.50000,0.26793
556.00000,0.26395
556.50000,0.26146
557.00000,0.25742
557.50000,0.25453
558.00000,0.25195
558.50000,0.24841
559.00000,0.24518
559.50000,0.24211
560.00000,0.23758
560.50000,0.23566
561.00000,0.23308
561.50000,0.22984
562.00000,0.22752
562.50000,0.22488
563.00000,0.22125
563.50000,0.21602
564.00000,0.21445
564.50000,0.21262
565.00000,0.20993
565.50000,0.20714
566.00000,0.20496
566.50000,0.20110
567.00000,0.19974
567.50000,0.19733
568.00000,0.19420
568.50000,0.19209
569.00000,0.18758
569.50000,0.18463
570.00000,0.18283
570.50000,0.18130
571.00000,0.17876
571.50000,0.17642
572.00000,0.17422
572.50000,0.17143
573.00000,0.16917
573.50000,0.16670
574.00000,0.16473
574.50000,0.16316
575.00000,0.16013
575.50000,0.15680
576.00000,0.15654
576.50000,0.15335
577.00000,0.15211
577.50000,0.15047
578.00000,0.14723
578.50000,0.14537
579.00000,0.14403
579.50000,0.14375
580.00000,0.14108
580.50000,0.13940
581.00000,0.13611
581.50000,0.13490
582.00000,0.13382
582.50000,0.13167
583.00000,0.12961
583.50000,0.12782
584.00000,0.12602
584.50000,0.12569
585.00000,0.12497
585.50000,0.12303
586.00000,0.12097
586.50000,0.11983
587.00000,0.11913
587.50000,0.11945
588.00000,0.11644
588.50000,0.11514
589.00000,0.11235
589.50000,0.11153
590.00000,0.11058
590.50000,0.11064
591.00000,0.10988
591.50000,0.10716
592.00000,0.10632
592.50000,0.10504
593.00000,0.10402
593.50000,0.10272
594.00000,0.10118
594.50000,0.10129
595.00000,0.09767
595.50000,0.09726
596.00000,0.09695
596.50000,0.09583
597.00000,0.09431
597.50000,0.09412
598.00000,0.09338
598.50000,0.09341
599.00000,0.09103
599.50000,0.09143
600.00000,0.09074
600.50000,0.09016
601.00000,0.08682
601.50000,0.08598
602.00000,0.08463
602.50000,0.08487
603.00000,0.08594
603.50000,0.08510
604.00000,0.08405
604.50000,0.08238
605.00000,0.08148
605.50000,0.08131
606.00000,0.07965
606.50000,0.07935
607.00000,0.07848
607.50000,0.07840
608.00000,0.07726
608.50000,0.07704
609.00000,0.07771
609.50000,0.07573
610.00000,0.07596
610.50000,0.07559
611.00000,0.07494
611.50000,0.07416
612.00000,0.07422
612.50000,0.07387
613.00000,0.07271
613.50000,0.07196
614.00000,0.07047
614.50000,0.07089
615.00000,0.07042
615.50000,0.07164
616.00000,0.06905
616.50000,0.06850
617.00000,0.06604
617.50000,0.06577
618.00000,0.06512
618.50000,0.06479
619.00000,0.06615
619.50000,0.06485
620.00000,0.06541
620.50000,0.06337
621.00000,0.06454
621.50000,0.06311
622.00000,0.06183
622.50000,0.06131
623.00000,0.06129
623.50000,0.06137
624.00000,0.06013
624.50000,0.05963
625.00000,0.05986
625.50000,0.06013
626.00000,0.05861
626.50000,0.05951
627.00000,0.05968
627.50000,0.05888
628.00000,0.05836
628.50000,0.05667
629.00000,0.05717
629.50000,0.05591
630.00000,0.05545
630.50000,0.05461
631.00000,0.05443
631.50000,0.05342
632.00000,0.05363
632.50000,0.05286
633.00000,0.05299
633.50000,0.05264
634.00000,0.05241
634.50000,0.05301
635.00000,0.05241
635.50000,0.05223
636.00000,0.05136
636.50000,0.05128
637.00000,0.05171
637.50000,0.04980
638.00000,0.05009
638.50000,0.04961
639.00000,0.04907
639.50000,0.04961
640.00000,0.04852
640.50000,0.04900
641.00000,0.04938
641.50000,0.04843
642.00000,0.04903
642.50000,0.04662
643.00000,0.04858
643.50000,0.04688
644.00000,0.04637
644.50000,0.04771
645.00000,0.04727
645.50000,0.04773
646.00000,0.04796
646.50000,0.04570
647.00000,0.04732
647.50000,0.04489
648.00000,0.04391
648.50000,0.04362
649.00000,0.04524
649.50000,0.04468
650.00000,0.04347
650.50000,0.04233
651.00000,0.04170
651.50000,0.04126
652.00000,0.04150
652.50000,0.04240
653.00000,0.04254
653.50000,0.04135
654.00000,0.04111
654.50000,0.03981
655.00000,0.03998
655.50000,0.04124
656.00000,0.04005
656.50000,0.04018
657.00000,0.03922
657.50000,0.03769
658.00000,0.03908
658.50000,0.03860
659.00000,0.03967
659.50000,0.03964
660.00000,0.03801
660.50000,0.03859
661.00000,0.03616
661.50000,0.03709
662.00000,0.03474
662.50000,0.03386
663.00000,0.03592
663.50000,0.03423
664.00000,0.03622
664.50000,0.03419
665.00000,0.03493
665.50000,0.03600
666.00000,0.03537
666.50000,0.03458
667.00000,0.03517
667.50000,0.03523
668.00000,0.03502
668.50000,0.03436
669.00000,0.03429
669.50000,0.03442
670.00000,0.03368
670.50000,0.03461
671.00000,0.03406
671.50000,0.03250
672.00000,0.03119
672.50000,0.03287
673.00000,0.03311
673.50000,0.03206
674.00000,0.03242
674.50000,0.03198
675.00000,0.03087
675.50000,0.03238
676.00000,0.02997
676.50000,0.03011
677.00000,0.02979
677.50000,0.03015
678.00000,0.03096
678.50000,0.03041
679.00000,0.03085
679.50000,0.02882
680.00000,0.02962
680.50000,0.03059
681.00000,0.03091
681.50000,0.03004
682.00000,0.03125
682.50000,0.02882
683.00000,0.02696
683.50000,0.02744
684.00000,0.02702
684.50000,0.02777
685.00000,0.02711
685.50000,0.02695
686.00000,0.02721
686.50000,0.02632
687.00000,0.02568
687.50000,0.02592
688.00000,0.02911
688.50000,0.02829
689.00000,0.02522
689.50000,0.02573
690.00000,0.02534
690.50000,0.02406
691.00000,0.02658
691.50000,0.02486
692.00000,0.02406
692.50000,0.02545
693.00000,0.02478
693.50000,0.02408
694.00000,0.02364
694.50000,0.02475
695.00000,0.02554
695.50000,0.02567
696.00000,0.02522
696.50000,0.02444
697.00000,0.02345
697.50000,0.02478
698.00000,0.02380
698.50000,0.02226
699.00000,0.02370
699.50000,0.02304
700.00000,0.02260
700.50000,0.02403
701.00000,0.02264
701.50000,0.02312
702.00000,0.02296
702.50000,0.02272
703.00000,0.02203
703.50000,0.02216
704.00000,0.02232
704.50000,0.02299
705.00000,0.02046
705.50000,0.02173
706.00000,0.02147
706.50000,0.02106
707.00000,0.02205
707.50000,0.02155
708.00000,0.02179
708.50000,0.02371
709.00000,0.02405
709.50000,0.02155
710.00000,0.02034
710.50000,0.01842
711.00000,0.01988
711.50000,0.01854
712.00000,0.01991
712.50000,0.01898
713.00000,0.01868
713.50000,0.01895
714.00000,0.01973
714.50000,0.01903
715.00000,0.02046
715.50000,0.02197
716.00000,0.01984
716.50000,0.01736
717.00000,0.01752
717.50000,0.01770
718.00000,0.01903
718.50000,0.01790
719.00000,0.01921
719.50000,0.02078
720.00000,0.02002
720.50000,0.02136
721.00000,0.02013
721.50000,0.01790
722.00000,0.01846
722.50000,0.01796
723.00000,0.01695
723.50000,0.01868
724.00000,0.01892
724.50000,0.01991
725.00000,0.02060
725.50000,0.01791
726.00000,0.01988
726.50000,0.01874
727.00000,0.01868
727.50000,0.01764
728.00000,0.01575
728.50000,0.01662
729.00000,0.01712
729.50000,0.01619
730.00000,0.01640
730.50000,0.01747
731.00000,0.01442
731.50000,0.01550
732.00000,0.01541
732.50000,0.01544
733.00000,0.01488
733.50000,0.01561
734.00000,0.01553
734.50000,0.01440
735.00000,0.01657
735.50000,0.01900
736.00000,0.01595
736.50000,0.01508
737.00000,0.01398
737.50000,0.01199
738.00000,0.01173
738.50000,0.01517
739.00000,0.01509
739.50000,0.01530
740.00000,0.01659
740.50000,0.01630
741.00000,0.01642
741.50000,0.01535
742.00000,0.01480
742.50000,0.01442
743.00000,0.01401
743.50000,0.01505
744.00000,0.01688
744.50000,0.01625
745.00000,0.01508
745.50000,0.01234
746.00000,0.01260
746.50000,0.01193
747.00000,0.01442
747.50000,0.01372
748.00000,0.01401
748.50000,0.01309
749.00000,0.01361
749.50000,0.01363
750.00000,0.01405
750.50000,0.01286
751.00000,0.01253
751.50000,0.01082
752.00000,0.01161
752.50000,0.01199
753.00000,0.01099
753.50000,0.01445
754.00000,0.01263
754.50000,0.01230
755.00000,0.01128
755.50000,0.01506
756.00000,0.01498
756.50000,0.01395
757.00000,0.01254
757.50000,0.01271
758.00000,0.01257
758.50000,0.01341
759.00000,0.01035
759.50000,0.01019
760.00000,0.01047
760.50000,0.01086
761.00000,0.01225
761.50000,0.00887
762.00000,0.01263
762.50000,0.01497
763.00000,0.01317
763.50000,0.01300
764.00000,0.01146
764.50000,0.01254
765.00000,0.01237
765.50000,0.01013
766.00000,0.01054
766.50000,0.01184
767.00000,0.01080
767.50000,0.01198
768.00000,0.01181
768.50000,0.01236
769.00000,0.01225
769.50000,0.01039
770.00000,0.01146
770.50000,0.01193
771.00000,0.01224
771.50000,0.00923
772.00000,0.01140
772.50000,0.00992
773.00000,0.01035
773.50000,0.00948
774.00000,0.00993
774.50000,0.01172
775.00000,0.00963
775.50000,0.00841
776.00000,0.00937
776.50000,0.01031
777.00000,0.01082
777.50000,0.01170
778.00000,0.01422
778.50000,0.01280
779.00000,0.00974
779.50000,0.01170
780.00000,0.01257
780.50000,0.01118
781.00000,0.01196
781.50000,0.01144
782.00000,0.01158
782.50000,0.01212
783.00000,0.01001
783.50000,0.01184
784.00000,0.01158
784.50000,0.01083
785.00000,0.01263
785.50000,0.01233
786.00000,0.01065
786.50000,0.01234
787.00000,0.01096
787.50000,0.01065
788.00000,0.01022
788.50000,0.01166
789.00000,0.00951
789.50000,0.00948
790.00000,0.01118
790.50000,0.01112
791.00000,0.01135
791.50000,0.01265
792.00000,0.01237
792.50000,0.01050
793.00000,0.01125
793.50000,0.01041
794.00000,0.00784
794.50000,0.01027
795.00000,0.00833
795.50000,0.00632
796.00000,0.00993
796.50000,0.01016
797.00000,0.01239
797.50000,0.00813
798.00000,0.01286
798.50000,0.01361
799.00000,0.00937
799.50000,0.01118
800.00000,0.00923
800.50000, 
801.00000, 
801.50000, 
802.00000, 
802.50000, 
803.00000, 
803.50000, 
804.00000, 
804.50000, 
805.00000, 
805.50000, 
806.00000, 
806.50000, 
807.00000, 
807.50000, 
808.00000, 
808.50000, 
809.00000, 
809.50000, 
810.00000, 
810.50000, 
811.00000, 
811.50000, 
812.00000, 
812.50000, 
813.00000, 
813.50000, 
814.00000, 
814.50000, 
815.00000, 
815.50000, 
816.00000, 
816.50000, 
817.00000, 
817.50000, 
818.00000, 
818.50000, 
819.00000, 
819.50000, 
820.00000, 
820.50000, 
821.00000, 
821.50000, 
822.00000, 
822.50000, 
823.00000, 
823.50000, 
824.00000, 
824.50000, 
825.00000, 
825.50000, 
826.00000, 
826.50000, 
827.00000, 
827.50000, 
828.00000, 
828.50000, 
829.00000, 
829.50000, 
830.00000, 
830.50000, 
831.00000, 
831.50000, 
832.00000, 
832.50000, 
833.00000, 
833.50000, 
834.00000, 
834.50000, 
835.00000, 
835.50000, 
836.00000, 
836.50000, 
837.00000, 
837.50000, 
838.00000, 
838.50000, 
839.00000, 
839.50000, 
840.00000, 
840.50000, 
841.00000, 
841.50000, 
842.00000, 
842.50000, 
843.00000, 
843.50000, 
844.00000, 
844.50000, 
845.00000, 
845.50000, 
846.00000, 
846.50000, 
847.00000, 
847.50000, 
848.00000, 
848.50000, 
849.00000, 
849.50000, 
850.00000, 
850.50000, 
851.00000, 
851.50000, 
852.00000, 
852.50000, 
853.00000, 
853.50000, 
854.00000, 
854.50000, 
855.00000, 
855.50000, 
856.00000, 
856.50000, 
857.00000, 
857.50000, 
858.00000, 
858.50000, 
859.00000, 
859.50000, 
860.00000, 
860.50000, 
861.00000, 
861.50000, 
862.00000, 
862.50000, 
863.00000, 
863.50000, 
864.00000, 
864.50000, 
865.00000, 
865.50000, 
866.00000, 
866.50000, 
867.00000, 
867.50000, 
868.00000, 
868.50000, 
869.00000, 
869.50000, 
870.00000, 
870.50000, 
871.00000, 
871.50000, 
872.00000, 
872.50000, 
873.00000, 
873.50000, 
874.00000, 
874.50000, 
875.00000, 
875.50000, 
876.00000, 
876.50000, 
877.00000, 
877.50000, 
878.00000, 
878.50000, 
879.00000, 
879.50000, 
880.00000, 
880.50000, 
881.00000, 
881.50000, 
882.00000, 
882.50000, 
883.00000, 
883.50000, 
884.00000, 
884.50000, 
885.00000, 
885.50000, 
886.00000, 
886.50000, 
887.00000, 
887.50000, 
888.00000, 
888.50000, 
889.00000, 
889.50000, 
890.00000, 
890.50000, 
891.00000, 
891.50000, 
892.00000, 
892.50000, 
893.00000, 
893.50000, 
894.00000, 
894.50000, 
895.00000, 
895.50000, 
896.00000, 
896.50000, 
897.00000, 
897.50000, 
898.00000, 
898.50000, 
899.00000, 
899.50000, 
900.00000, 
