"Storage 151817 - RawData - C:\Documents and Settings\user\My Documents\Adam_Hughes\11_5_12\25nm_np\NPConcentration\File_121105_151817.spc"
"Wavelength nm.","Abs."
400.00000,0.12280
400.50000,0.12497
401.00000,0.12695
401.50000,0.12637
402.00000,0.12828
402.50000,0.12637
403.00000,0.12585
403.50000,0.12558
404.00000,0.12486
404.50000,0.12790
405.00000,0.12769
405.50000,0.12781
406.00000,0.12537
406.50000,0.12883
407.00000,0.12363
407.50000,0.12106
408.00000,0.12344
408.50000,0.12527
409.00000,0.12309
409.50000,0.12340
410.00000,0.12720
410.50000,0.12341
411.00000,0.12360
411.50000,0.12740
412.00000,0.12540
412.50000,0.12399
413.00000,0.12352
413.50000,0.11972
414.00000,0.12128
414.50000,0.12138
415.00000,0.11993
415.50000,0.12447
416.00000,0.12413
416.50000,0.12405
417.00000,0.12439
417.50000,0.12579
418.00000,0.12247
418.50000,0.12408
419.00000,0.12213
419.50000,0.12360
420.00000,0.12067
420.50000,0.12360
421.00000,0.12631
421.50000,0.12575
422.00000,0.12738
422.50000,0.13007
423.00000,0.12457
423.50000,0.12254
424.00000,0.11992
424.50000,0.12175
425.00000,0.12279
425.50000,0.12198
426.00000,0.12141
426.50000,0.12259
427.00000,0.12245
427.50000,0.12195
428.00000,0.12120
428.50000,0.12001
429.00000,0.12259
429.50000,0.12241
430.00000,0.12173
430.50000,0.11905
431.00000,0.12065
431.50000,0.11964
432.00000,0.12241
432.50000,0.12102
433.00000,0.12424
433.50000,0.12477
434.00000,0.12434
434.50000,0.12372
435.00000,0.12170
435.50000,0.12183
436.00000,0.12180
436.50000,0.12254
437.00000,0.12393
437.50000,0.12309
438.00000,0.12175
438.50000,0.12321
439.00000,0.12155
439.50000,0.12209
440.00000,0.12123
440.50000,0.12083
441.00000,0.11856
441.50000,0.12070
442.00000,0.11913
442.50000,0.11880
443.00000,0.11919
443.50000,0.12080
444.00000,0.12144
444.50000,0.12128
445.00000,0.11964
445.50000,0.12326
446.00000,0.12213
446.50000,0.12164
447.00000,0.12402
447.50000,0.12135
448.00000,0.12465
448.50000,0.12259
449.00000,0.12358
449.50000,0.12181
450.00000,0.12285
450.50000,0.12134
451.00000,0.12259
451.50000,0.12331
452.00000,0.12387
452.50000,0.12291
453.00000,0.12224
453.50000,0.12088
454.00000,0.11983
454.50000,0.12091
455.00000,0.12457
455.50000,0.12633
456.00000,0.12674
456.50000,0.12558
457.00000,0.12604
457.50000,0.12268
458.00000,0.12296
458.50000,0.12256
459.00000,0.12236
459.50000,0.12173
460.00000,0.12244
460.50000,0.12386
461.00000,0.12434
461.50000,0.12555
462.00000,0.12474
462.50000,0.12349
463.00000,0.12541
463.50000,0.12547
464.00000,0.12781
464.50000,0.12689
465.00000,0.12753
465.50000,0.12898
466.00000,0.12750
466.50000,0.12602
467.00000,0.12639
467.50000,0.12845
468.00000,0.12744
468.50000,0.12711
469.00000,0.12973
469.50000,0.12962
470.00000,0.13141
470.50000,0.13133
471.00000,0.13168
471.50000,0.13164
472.00000,0.13118
472.50000,0.13014
473.00000,0.13116
473.50000,0.13002
474.00000,0.13112
474.50000,0.13101
475.00000,0.13168
475.50000,0.13127
476.00000,0.13303
476.50000,0.13271
477.00000,0.13509
477.50000,0.13440
478.00000,0.13324
478.50000,0.13513
479.00000,0.13683
479.50000,0.13647
480.00000,0.13727
480.50000,0.13838
481.00000,0.13809
481.50000,0.13922
482.00000,0.14072
482.50000,0.14072
483.00000,0.14250
483.50000,0.14180
484.00000,0.14351
484.50000,0.14592
485.00000,0.14421
485.50000,0.14633
486.00000,0.14706
486.50000,0.14691
487.00000,0.14705
487.50000,0.14702
488.00000,0.14871
488.50000,0.15038
489.00000,0.15244
489.50000,0.15300
490.00000,0.15334
490.50000,0.15401
491.00000,0.15662
491.50000,0.15704
492.00000,0.15797
492.50000,0.15819
493.00000,0.15886
493.50000,0.16260
494.00000,0.16306
494.50000,0.16463
495.00000,0.16693
495.50000,0.16751
496.00000,0.17010
496.50000,0.17130
497.00000,0.17259
497.50000,0.17450
498.00000,0.17519
498.50000,0.17798
499.00000,0.17813
499.50000,0.17941
500.00000,0.18068
500.50000,0.18233
501.00000,0.18460
501.50000,0.18504
502.00000,0.18649
502.50000,0.18927
503.00000,0.19032
503.50000,0.19098
504.00000,0.19257
504.50000,0.19482
505.00000,0.19789
505.50000,0.19803
506.00000,0.19881
506.50000,0.20193
507.00000,0.20316
507.50000,0.20357
508.00000,0.20372
508.50000,0.20506
509.00000,0.20775
509.50000,0.20891
510.00000,0.21054
510.50000,0.21217
511.00000,0.21359
511.50000,0.21378
512.00000,0.21588
512.50000,0.21703
513.00000,0.21776
513.50000,0.21925
514.00000,0.22144
514.50000,0.22090
515.00000,0.22334
515.50000,0.22246
516.00000,0.22299
516.50000,0.22548
517.00000,0.22484
517.50000,0.22783
518.00000,0.22890
518.50000,0.22853
519.00000,0.22813
519.50000,0.22798
520.00000,0.22900
520.50000,0.23024
521.00000,0.23135
521.50000,0.23090
522.00000,0.23225
522.50000,0.23187
523.00000,0.23038
523.50000,0.23225
524.00000,0.23167
524.50000,0.23077
525.00000,0.23149
525.50000,0.22984
526.00000,0.22937
526.50000,0.22961
527.00000,0.22975
527.50000,0.22981
528.00000,0.22842
528.50000,0.22856
529.00000,0.22842
529.50000,0.22685
530.00000,0.22784
530.50000,0.22783
531.00000,0.22534
531.50000,0.22363
532.00000,0.22386
532.50000,0.22432
533.00000,0.22432
533.50000,0.21938
534.00000,0.22127
534.50000,0.21849
535.00000,0.21794
535.50000,0.21555
536.00000,0.21469
536.50000,0.21222
537.00000,0.21156
537.50000,0.21066
538.00000,0.20753
538.50000,0.20695
539.00000,0.20717
539.50000,0.20412
540.00000,0.20122
540.50000,0.20158
541.00000,0.20026
541.50000,0.19794
542.00000,0.19377
542.50000,0.19312
543.00000,0.18941
543.50000,0.18814
544.00000,0.18774
544.50000,0.18449
545.00000,0.18257
545.50000,0.18329
546.00000,0.18071
546.50000,0.17961
547.00000,0.17723
547.50000,0.17424
548.00000,0.17250
548.50000,0.17126
549.00000,0.16968
549.50000,0.16849
550.00000,0.16533
550.50000,0.16331
551.00000,0.15987
551.50000,0.15825
552.00000,0.15613
552.50000,0.15501
553.00000,0.15327
553.50000,0.15079
554.00000,0.14920
554.50000,0.14494
555.00000,0.14456
555.50000,0.14171
556.00000,0.14009
556.50000,0.13873
557.00000,0.13629
557.50000,0.13541
558.00000,0.13434
558.50000,0.13190
559.00000,0.13173
559.50000,0.12872
560.00000,0.12730
560.50000,0.12558
561.00000,0.12411
561.50000,0.12189
562.00000,0.12048
562.50000,0.11801
563.00000,0.11522
563.50000,0.11598
564.00000,0.11380
564.50000,0.11340
565.00000,0.11221
565.50000,0.11032
566.00000,0.10788
566.50000,0.10677
567.00000,0.10579
567.50000,0.10576
568.00000,0.10466
568.50000,0.10139
569.00000,0.09840
569.50000,0.09813
570.00000,0.09589
570.50000,0.09547
571.00000,0.09367
571.50000,0.09279
572.00000,0.09258
572.50000,0.09067
573.00000,0.08882
573.50000,0.08791
574.00000,0.08673
574.50000,0.08466
575.00000,0.08501
575.50000,0.08403
576.00000,0.08235
576.50000,0.08095
577.00000,0.08009
577.50000,0.07857
578.00000,0.07817
578.50000,0.07750
579.00000,0.07567
579.50000,0.07443
580.00000,0.07288
580.50000,0.07326
581.00000,0.07101
581.50000,0.07120
582.00000,0.07190
582.50000,0.07063
583.00000,0.06837
583.50000,0.06821
584.00000,0.06697
584.50000,0.06613
585.00000,0.06468
585.50000,0.06479
586.00000,0.06381
586.50000,0.06453
587.00000,0.06386
587.50000,0.06174
588.00000,0.06145
588.50000,0.06046
589.00000,0.06026
589.50000,0.05902
590.00000,0.05873
590.50000,0.05966
591.00000,0.05748
591.50000,0.05550
592.00000,0.05670
592.50000,0.05443
593.00000,0.05487
593.50000,0.05447
594.00000,0.05408
594.50000,0.05229
595.00000,0.05183
595.50000,0.05164
596.00000,0.05081
596.50000,0.04890
597.00000,0.04988
597.50000,0.04994
598.00000,0.05048
598.50000,0.04919
599.00000,0.04961
599.50000,0.04938
600.00000,0.04845
600.50000,0.04674
601.00000,0.04692
601.50000,0.04561
602.00000,0.04579
602.50000,0.04579
603.00000,0.04510
603.50000,0.04578
604.00000,0.04396
604.50000,0.04292
605.00000,0.04274
605.50000,0.04219
606.00000,0.04195
606.50000,0.04321
607.00000,0.04166
607.50000,0.04268
608.00000,0.04088
608.50000,0.04031
609.00000,0.04102
609.50000,0.04068
610.00000,0.04005
610.50000,0.04074
611.00000,0.04057
611.50000,0.03972
612.00000,0.03981
612.50000,0.04051
613.00000,0.03793
613.50000,0.03847
614.00000,0.04015
614.50000,0.03796
615.00000,0.03761
615.50000,0.03691
616.00000,0.03787
616.50000,0.03644
617.00000,0.03662
617.50000,0.03418
618.00000,0.03622
618.50000,0.03508
619.00000,0.03549
619.50000,0.03549
620.00000,0.03401
620.50000,0.03384
621.00000,0.03493
621.50000,0.03357
622.00000,0.03340
622.50000,0.03169
623.00000,0.03250
623.50000,0.03229
624.00000,0.03206
624.50000,0.03123
625.00000,0.03185
625.50000,0.03159
626.00000,0.03320
626.50000,0.03232
627.00000,0.03175
627.50000,0.03154
628.00000,0.03175
628.50000,0.03134
629.00000,0.02986
629.50000,0.02893
630.00000,0.02911
630.50000,0.02803
631.00000,0.02843
631.50000,0.02846
632.00000,0.02806
632.50000,0.02826
633.00000,0.02763
633.50000,0.02835
634.00000,0.02675
634.50000,0.02846
635.00000,0.02815
635.50000,0.02846
636.00000,0.02847
636.50000,0.02713
637.00000,0.02684
637.50000,0.02664
638.00000,0.02721
638.50000,0.02660
639.00000,0.02626
639.50000,0.02585
640.00000,0.02658
640.50000,0.02678
641.00000,0.02719
641.50000,0.02522
642.00000,0.02614
642.50000,0.02635
643.00000,0.02611
643.50000,0.02426
644.00000,0.02583
644.50000,0.02534
645.00000,0.02574
645.50000,0.02429
646.00000,0.02618
646.50000,0.02632
647.00000,0.02483
647.50000,0.02299
648.00000,0.02249
648.50000,0.02339
649.00000,0.02486
649.50000,0.02444
650.00000,0.02441
650.50000,0.02170
651.00000,0.02196
651.50000,0.02126
652.00000,0.02226
652.50000,0.02179
653.00000,0.02280
653.50000,0.02223
654.00000,0.02156
654.50000,0.02153
655.00000,0.02042
655.50000,0.02254
656.00000,0.02039
656.50000,0.02217
657.00000,0.01985
657.50000,0.02019
658.00000,0.02214
658.50000,0.02057
659.00000,0.02193
659.50000,0.02138
660.00000,0.02106
660.50000,0.02072
661.00000,0.01935
661.50000,0.01997
662.00000,0.01752
662.50000,0.01733
663.00000,0.01875
663.50000,0.01898
664.00000,0.01920
664.50000,0.01859
665.00000,0.01910
665.50000,0.02008
666.00000,0.01952
666.50000,0.01990
667.00000,0.01857
667.50000,0.01991
668.00000,0.01990
668.50000,0.01778
669.00000,0.01849
669.50000,0.01863
670.00000,0.02042
670.50000,0.01692
671.00000,0.01970
671.50000,0.01759
672.00000,0.01639
672.50000,0.01714
673.00000,0.01791
673.50000,0.01801
674.00000,0.01729
674.50000,0.01646
675.00000,0.01741
675.50000,0.01590
676.00000,0.01462
676.50000,0.01581
677.00000,0.01584
677.50000,0.01755
678.00000,0.01639
678.50000,0.01817
679.00000,0.01637
679.50000,0.01660
680.00000,0.01587
680.50000,0.01659
681.00000,0.01830
681.50000,0.01724
682.00000,0.01727
682.50000,0.01668
683.00000,0.01479
683.50000,0.01382
684.00000,0.01442
684.50000,0.01468
685.00000,0.01521
685.50000,0.01369
686.00000,0.01530
686.50000,0.01416
687.00000,0.01471
687.50000,0.01541
688.00000,0.01532
688.50000,0.01364
689.00000,0.01434
689.50000,0.01439
690.00000,0.01427
690.50000,0.01297
691.00000,0.01239
691.50000,0.01324
692.00000,0.01442
692.50000,0.01332
693.00000,0.01480
693.50000,0.01373
694.00000,0.01233
694.50000,0.01309
695.00000,0.01308
695.50000,0.01392
696.00000,0.01593
696.50000,0.01529
697.00000,0.01489
697.50000,0.01453
698.00000,0.01407
698.50000,0.01379
699.00000,0.01219
699.50000,0.01219
700.00000,0.01308
700.50000,0.01180
701.00000,0.01360
701.50000,0.01283
702.00000,0.01328
702.50000,0.01265
703.00000,0.01146
703.50000,0.01390
704.00000,0.01260
704.50000,0.01237
705.00000,0.01085
705.50000,0.01210
706.00000,0.01338
706.50000,0.01389
707.00000,0.01216
707.50000,0.01192
708.00000,0.01254
708.50000,0.01291
709.00000,0.01454
709.50000,0.01332
710.00000,0.01157
710.50000,0.01047
711.00000,0.01065
711.50000,0.00911
712.00000,0.01057
712.50000,0.01062
713.00000,0.00993
713.50000,0.00995
714.00000,0.00945
714.50000,0.01094
715.00000,0.01205
715.50000,0.01274
716.00000,0.01216
716.50000,0.00992
717.00000,0.01016
717.50000,0.00977
718.00000,0.01004
718.50000,0.01047
719.00000,0.01045
719.50000,0.01112
720.00000,0.01230
720.50000,0.01202
721.00000,0.01106
721.50000,0.00935
722.00000,0.00905
722.50000,0.00963
723.00000,0.00954
723.50000,0.01021
724.00000,0.01152
724.50000,0.01094
725.00000,0.01161
725.50000,0.01106
726.00000,0.01201
726.50000,0.01273
727.00000,0.01216
727.50000,0.01030
728.00000,0.01045
728.50000,0.00960
729.00000,0.00983
729.50000,0.01027
730.00000,0.00929
730.50000,0.00986
731.00000,0.00955
731.50000,0.00778
732.00000,0.00734
732.50000,0.00897
733.00000,0.00883
733.50000,0.00841
734.00000,0.00887
734.50000,0.00987
735.00000,0.01036
735.50000,0.01099
736.00000,0.00981
736.50000,0.00977
737.00000,0.00684
737.50000,0.00525
738.00000,0.00676
738.50000,0.00722
739.00000,0.01001
739.50000,0.01065
740.00000,0.01053
740.50000,0.00861
741.00000,0.01016
741.50000,0.00977
742.00000,0.00771
742.50000,0.00713
743.00000,0.00739
743.50000,0.00822
744.00000,0.00798
744.50000,0.01062
745.00000,0.00903
745.50000,0.00749
746.00000,0.00752
746.50000,0.00748
747.00000,0.00677
747.50000,0.00783
748.00000,0.00858
748.50000,0.00874
749.00000,0.00932
749.50000,0.00661
750.00000,0.00861
750.50000,0.00861
751.00000,0.00706
751.50000,0.00797
752.00000,0.00615
752.50000,0.00804
753.00000,0.00832
753.50000,0.00780
754.00000,0.00717
754.50000,0.00624
755.00000,0.00731
755.50000,0.00906
756.00000,0.00983
756.50000,0.00941
757.00000,0.00752
757.50000,0.00716
758.00000,0.00754
758.50000,0.00703
759.00000,0.00545
759.50000,0.00455
760.00000,0.00685
760.50000,0.00748
761.00000,0.00693
761.50000,0.00400
762.00000,0.00693
762.50000,0.00757
763.00000,0.00842
763.50000,0.00833
764.00000,0.00626
764.50000,0.00851
765.00000,0.00821
765.50000,0.00542
766.00000,0.00650
766.50000,0.00633
767.00000,0.00793
767.50000,0.00508
768.00000,0.00745
768.50000,0.00658
769.00000,0.00771
769.50000,0.00580
770.00000,0.00589
770.50000,0.00659
771.00000,0.00655
771.50000,0.00546
772.00000,0.00441
772.50000,0.00565
773.00000,0.00482
773.50000,0.00282
774.00000,0.00409
774.50000,0.00713
775.00000,0.00407
775.50000,0.00182
776.00000,0.00401
776.50000,0.00493
777.00000,0.00531
777.50000,0.00735
778.00000,0.00912
778.50000,0.00648
779.00000,0.00587
779.50000,0.00580
780.00000,0.00713
780.50000,0.00684
781.00000,0.00264
781.50000,0.00514
782.00000,0.00694
782.50000,0.00632
783.00000,0.00636
783.50000,0.00555
784.00000,0.00732
784.50000,0.00552
785.00000,0.00558
785.50000,0.00703
786.00000,0.00552
786.50000,0.00740
787.00000,0.00792
787.50000,0.00780
788.00000,0.00519
788.50000,0.00761
789.00000,0.00591
789.50000,0.00478
790.00000,0.00885
790.50000,0.00555
791.00000,0.00516
791.50000,0.00891
792.00000,0.00793
792.50000,0.00722
793.00000,0.00766
793.50000,0.00479
794.00000,0.00510
794.50000,0.00722
795.00000,0.00319
795.50000,0.00435
796.00000,0.00549
796.50000,0.00421
797.00000,0.00783
797.50000,0.00560
798.00000,0.00528
798.50000,0.00714
799.00000,0.00262
799.50000,0.00652
800.00000,0.00513
800.50000, 
801.00000, 
801.50000, 
802.00000, 
802.50000, 
803.00000, 
803.50000, 
804.00000, 
804.50000, 
805.00000, 
805.50000, 
806.00000, 
806.50000, 
807.00000, 
807.50000, 
808.00000, 
808.50000, 
809.00000, 
809.50000, 
810.00000, 
810.50000, 
811.00000, 
811.50000, 
812.00000, 
812.50000, 
813.00000, 
813.50000, 
814.00000, 
814.50000, 
815.00000, 
815.50000, 
816.00000, 
816.50000, 
817.00000, 
817.50000, 
818.00000, 
818.50000, 
819.00000, 
819.50000, 
820.00000, 
820.50000, 
821.00000, 
821.50000, 
822.00000, 
822.50000, 
823.00000, 
823.50000, 
824.00000, 
824.50000, 
825.00000, 
825.50000, 
826.00000, 
826.50000, 
827.00000, 
827.50000, 
828.00000, 
828.50000, 
829.00000, 
829.50000, 
830.00000, 
830.50000, 
831.00000, 
831.50000, 
832.00000, 
832.50000, 
833.00000, 
833.50000, 
834.00000, 
834.50000, 
835.00000, 
835.50000, 
836.00000, 
836.50000, 
837.00000, 
837.50000, 
838.00000, 
838.50000, 
839.00000, 
839.50000, 
840.00000, 
840.50000, 
841.00000, 
841.50000, 
842.00000, 
842.50000, 
843.00000, 
843.50000, 
844.00000, 
844.50000, 
845.00000, 
845.50000, 
846.00000, 
846.50000, 
847.00000, 
847.50000, 
848.00000, 
848.50000, 
849.00000, 
849.50000, 
850.00000, 
850.50000, 
851.00000, 
851.50000, 
852.00000, 
852.50000, 
853.00000, 
853.50000, 
854.00000, 
854.50000, 
855.00000, 
855.50000, 
856.00000, 
856.50000, 
857.00000, 
857.50000, 
858.00000, 
858.50000, 
859.00000, 
859.50000, 
860.00000, 
860.50000, 
861.00000, 
861.50000, 
862.00000, 
862.50000, 
863.00000, 
863.50000, 
864.00000, 
864.50000, 
865.00000, 
865.50000, 
866.00000, 
866.50000, 
867.00000, 
867.50000, 
868.00000, 
868.50000, 
869.00000, 
869.50000, 
870.00000, 
870.50000, 
871.00000, 
871.50000, 
872.00000, 
872.50000, 
873.00000, 
873.50000, 
874.00000, 
874.50000, 
875.00000, 
875.50000, 
876.00000, 
876.50000, 
877.00000, 
877.50000, 
878.00000, 
878.50000, 
879.00000, 
879.50000, 
880.00000, 
880.50000, 
881.00000, 
881.50000, 
882.00000, 
882.50000, 
883.00000, 
883.50000, 
884.00000, 
884.50000, 
885.00000, 
885.50000, 
886.00000, 
886.50000, 
887.00000, 
887.50000, 
888.00000, 
888.50000, 
889.00000, 
889.50000, 
890.00000, 
890.50000, 
891.00000, 
891.50000, 
892.00000, 
892.50000, 
893.00000, 
893.50000, 
894.00000, 
894.50000, 
895.00000, 
895.50000, 
896.00000, 
896.50000, 
897.00000, 
897.50000, 
898.00000, 
898.50000, 
899.00000, 
899.50000, 
900.00000, 
