"Storage 151218 - RawData - C:\Documents and Settings\user\My Documents\Adam_Hughes\11_5_12\50nm_np_free_soln\File_121105_151218.spc"
"Wavelength nm.","Abs."
400.00000,0.06737
400.50000,0.06999
401.00000,0.06940
401.50000,0.07268
402.00000,0.07164
402.50000,0.06972
403.00000,0.07138
403.50000,0.07085
404.00000,0.06796
404.50000,0.06995
405.00000,0.07285
405.50000,0.07286
406.00000,0.07175
406.50000,0.07187
407.00000,0.06981
407.50000,0.06772
408.00000,0.06729
408.50000,0.06712
409.00000,0.07037
409.50000,0.07048
410.00000,0.07181
410.50000,0.06982
411.00000,0.07076
411.50000,0.07120
412.00000,0.06662
412.50000,0.06859
413.00000,0.06630
413.50000,0.06644
414.00000,0.06467
414.50000,0.06612
415.00000,0.06752
415.50000,0.07048
416.00000,0.07065
416.50000,0.06818
417.00000,0.07088
417.50000,0.06979
418.00000,0.06943
418.50000,0.06821
419.00000,0.06862
419.50000,0.06705
420.00000,0.06905
420.50000,0.07016
421.00000,0.07027
421.50000,0.07135
422.00000,0.07137
422.50000,0.07019
423.00000,0.06841
423.50000,0.06921
424.00000,0.06633
424.50000,0.06593
425.00000,0.06818
425.50000,0.06873
426.00000,0.06802
426.50000,0.06641
427.00000,0.06853
427.50000,0.06587
428.00000,0.06903
428.50000,0.06731
429.00000,0.06854
429.50000,0.06842
430.00000,0.06787
430.50000,0.06761
431.00000,0.06705
431.50000,0.06485
432.00000,0.06747
432.50000,0.06595
433.00000,0.06804
433.50000,0.07309
434.00000,0.06839
434.50000,0.06801
435.00000,0.06581
435.50000,0.06790
436.00000,0.06512
436.50000,0.07019
437.00000,0.07034
437.50000,0.07057
438.00000,0.06985
438.50000,0.07083
439.00000,0.06796
439.50000,0.06679
440.00000,0.06670
440.50000,0.06631
441.00000,0.06557
441.50000,0.06398
442.00000,0.06738
442.50000,0.06628
443.00000,0.06454
443.50000,0.06679
444.00000,0.06656
444.50000,0.06613
445.00000,0.06668
445.50000,0.06812
446.00000,0.06813
446.50000,0.06958
447.00000,0.07056
447.50000,0.07207
448.00000,0.07082
448.50000,0.06920
449.00000,0.06854
449.50000,0.06793
450.00000,0.06761
450.50000,0.06827
451.00000,0.06679
451.50000,0.06802
452.00000,0.06767
452.50000,0.06676
453.00000,0.06674
453.50000,0.06715
454.00000,0.06563
454.50000,0.06602
455.00000,0.06671
455.50000,0.06917
456.00000,0.07101
456.50000,0.06935
457.00000,0.06914
457.50000,0.06863
458.00000,0.06778
458.50000,0.06749
459.00000,0.06543
459.50000,0.06541
460.00000,0.06885
460.50000,0.06909
461.00000,0.07124
461.50000,0.06908
462.00000,0.06981
462.50000,0.06926
463.00000,0.06999
463.50000,0.06990
464.00000,0.07036
464.50000,0.07080
465.00000,0.07138
465.50000,0.07326
466.00000,0.07225
466.50000,0.07164
467.00000,0.07047
467.50000,0.07053
468.00000,0.07155
468.50000,0.07048
469.00000,0.07088
469.50000,0.07405
470.00000,0.07332
470.50000,0.07451
471.00000,0.07323
471.50000,0.07295
472.00000,0.07324
472.50000,0.07237
473.00000,0.07172
473.50000,0.07195
474.00000,0.07249
474.50000,0.07155
475.00000,0.07207
475.50000,0.07129
476.00000,0.07358
476.50000,0.07278
477.00000,0.07578
477.50000,0.07442
478.00000,0.07504
478.50000,0.07434
479.00000,0.07574
479.50000,0.07622
480.00000,0.07498
480.50000,0.07639
481.00000,0.07646
481.50000,0.07735
482.00000,0.07826
482.50000,0.07875
483.00000,0.07774
483.50000,0.08101
484.00000,0.07828
484.50000,0.08139
485.00000,0.08055
485.50000,0.08087
486.00000,0.08055
486.50000,0.08095
487.00000,0.08101
487.50000,0.08224
488.00000,0.08217
488.50000,0.08385
489.00000,0.08418
489.50000,0.08478
490.00000,0.08397
490.50000,0.08571
491.00000,0.08513
491.50000,0.08600
492.00000,0.08685
492.50000,0.08661
493.00000,0.08772
493.50000,0.08820
494.00000,0.09071
494.50000,0.08966
495.00000,0.09070
495.50000,0.09337
496.00000,0.09506
496.50000,0.09547
497.00000,0.09561
497.50000,0.09692
498.00000,0.09760
498.50000,0.09737
499.00000,0.09821
499.50000,0.09949
500.00000,0.10031
500.50000,0.10077
501.00000,0.10312
501.50000,0.10272
502.00000,0.10226
502.50000,0.10361
503.00000,0.10501
503.50000,0.10469
504.00000,0.10756
504.50000,0.10759
505.00000,0.10968
505.50000,0.11089
506.00000,0.11086
506.50000,0.11269
507.00000,0.11098
507.50000,0.11220
508.00000,0.11237
508.50000,0.11317
509.00000,0.11507
509.50000,0.11363
510.00000,0.11665
510.50000,0.11797
511.00000,0.11748
511.50000,0.11702
512.00000,0.11887
512.50000,0.11858
513.00000,0.12003
513.50000,0.12029
514.00000,0.12128
514.50000,0.12238
515.00000,0.12291
515.50000,0.12337
516.00000,0.12238
516.50000,0.12468
517.00000,0.12376
517.50000,0.12447
518.00000,0.12614
518.50000,0.12639
519.00000,0.12575
519.50000,0.12508
520.00000,0.12331
520.50000,0.12611
521.00000,0.12679
521.50000,0.12598
522.00000,0.12794
522.50000,0.12721
523.00000,0.12660
523.50000,0.12674
524.00000,0.12749
524.50000,0.12762
525.00000,0.12700
525.50000,0.12720
526.00000,0.12529
526.50000,0.12576
527.00000,0.12637
527.50000,0.12518
528.00000,0.12477
528.50000,0.12418
529.00000,0.12363
529.50000,0.12514
530.00000,0.12399
530.50000,0.12538
531.00000,0.12331
531.50000,0.12276
532.00000,0.12350
532.50000,0.12585
533.00000,0.12236
533.50000,0.12170
534.00000,0.12085
534.50000,0.12001
535.00000,0.11755
535.50000,0.11722
536.00000,0.11540
536.50000,0.11710
537.00000,0.11601
537.50000,0.11426
538.00000,0.11365
538.50000,0.11392
539.00000,0.11301
539.50000,0.11169
540.00000,0.11243
540.50000,0.11057
541.00000,0.10970
541.50000,0.10852
542.00000,0.10759
542.50000,0.10526
543.00000,0.10504
543.50000,0.10320
544.00000,0.10078
544.50000,0.10167
545.00000,0.10120
545.50000,0.09998
546.00000,0.09920
546.50000,0.09860
547.00000,0.09888
547.50000,0.09628
548.00000,0.09430
548.50000,0.09305
549.00000,0.09155
549.50000,0.09062
550.00000,0.09129
550.50000,0.08949
551.00000,0.08748
551.50000,0.08604
552.00000,0.08527
552.50000,0.08510
553.00000,0.08339
553.50000,0.08226
554.00000,0.08105
554.50000,0.08049
555.00000,0.07892
555.50000,0.07835
556.00000,0.07710
556.50000,0.07523
557.00000,0.07486
557.50000,0.07475
558.00000,0.07431
558.50000,0.07217
559.00000,0.07092
559.50000,0.07051
560.00000,0.06885
560.50000,0.06752
561.00000,0.06787
561.50000,0.06584
562.00000,0.06622
562.50000,0.06343
563.00000,0.06197
563.50000,0.06282
564.00000,0.06161
564.50000,0.06172
565.00000,0.06157
565.50000,0.06020
566.00000,0.05922
566.50000,0.05867
567.00000,0.05846
567.50000,0.05783
568.00000,0.05702
568.50000,0.05591
569.00000,0.05418
569.50000,0.05138
570.00000,0.05284
570.50000,0.05118
571.00000,0.05183
571.50000,0.05074
572.00000,0.05064
572.50000,0.04935
573.00000,0.04929
573.50000,0.04851
574.00000,0.04755
574.50000,0.04646
575.00000,0.04620
575.50000,0.04472
576.00000,0.04375
576.50000,0.04443
577.00000,0.04359
577.50000,0.04295
578.00000,0.04103
578.50000,0.04117
579.00000,0.04094
579.50000,0.03996
580.00000,0.04033
580.50000,0.03862
581.00000,0.03960
581.50000,0.03851
582.00000,0.03894
582.50000,0.03784
583.00000,0.03690
583.50000,0.03627
584.00000,0.03529
584.50000,0.03445
585.00000,0.03432
585.50000,0.03378
586.00000,0.03505
586.50000,0.03465
587.00000,0.03468
587.50000,0.03523
588.00000,0.03438
588.50000,0.03323
589.00000,0.03172
589.50000,0.03235
590.00000,0.03004
590.50000,0.03181
591.00000,0.03011
591.50000,0.03000
592.00000,0.03038
592.50000,0.02934
593.00000,0.03026
593.50000,0.03035
594.00000,0.03061
594.50000,0.02855
595.00000,0.02827
595.50000,0.02693
596.00000,0.02776
596.50000,0.02686
597.00000,0.02678
597.50000,0.02740
598.00000,0.02637
598.50000,0.02875
599.00000,0.02702
599.50000,0.02649
600.00000,0.02672
600.50000,0.02592
601.00000,0.02496
601.50000,0.02377
602.00000,0.02390
602.50000,0.02449
603.00000,0.02524
603.50000,0.02440
604.00000,0.02438
604.50000,0.02393
605.00000,0.02341
605.50000,0.02348
606.00000,0.02368
606.50000,0.02344
607.00000,0.02335
607.50000,0.02267
608.00000,0.02232
608.50000,0.02290
609.00000,0.02159
609.50000,0.02144
610.00000,0.02251
610.50000,0.02226
611.00000,0.02243
611.50000,0.02116
612.00000,0.02298
612.50000,0.02144
613.00000,0.02161
613.50000,0.02151
614.00000,0.02094
614.50000,0.02153
615.00000,0.02162
615.50000,0.02216
616.00000,0.02249
616.50000,0.02048
617.00000,0.01939
617.50000,0.01974
618.00000,0.02026
618.50000,0.01826
619.00000,0.02072
619.50000,0.02011
620.00000,0.01884
620.50000,0.01952
621.00000,0.01956
621.50000,0.01938
622.00000,0.01894
622.50000,0.01952
623.00000,0.01845
623.50000,0.01732
624.00000,0.01784
624.50000,0.01743
625.00000,0.01759
625.50000,0.01839
626.00000,0.01875
626.50000,0.01813
627.00000,0.01805
627.50000,0.01837
628.00000,0.01790
628.50000,0.01625
629.00000,0.01674
629.50000,0.01649
630.00000,0.01624
630.50000,0.01508
631.00000,0.01453
631.50000,0.01472
632.00000,0.01530
632.50000,0.01517
633.00000,0.01566
633.50000,0.01517
634.00000,0.01611
634.50000,0.01678
635.00000,0.01544
635.50000,0.01587
636.00000,0.01689
636.50000,0.01506
637.00000,0.01553
637.50000,0.01413
638.00000,0.01370
638.50000,0.01419
639.00000,0.01505
639.50000,0.01396
640.00000,0.01544
640.50000,0.01457
641.00000,0.01599
641.50000,0.01534
642.00000,0.01512
642.50000,0.01425
643.00000,0.01477
643.50000,0.01353
644.00000,0.01459
644.50000,0.01521
645.00000,0.01508
645.50000,0.01422
646.00000,0.01427
646.50000,0.01466
647.00000,0.01419
647.50000,0.01363
648.00000,0.01227
648.50000,0.01358
649.00000,0.01398
649.50000,0.01494
650.00000,0.01427
650.50000,0.01279
651.00000,0.01161
651.50000,0.01068
652.00000,0.01224
652.50000,0.01324
653.00000,0.01274
653.50000,0.01389
654.00000,0.01254
654.50000,0.01067
655.00000,0.01181
655.50000,0.01265
656.00000,0.01103
656.50000,0.01271
657.00000,0.01166
657.50000,0.01143
658.00000,0.01338
658.50000,0.01155
659.00000,0.01233
659.50000,0.01155
660.00000,0.01196
660.50000,0.01152
661.00000,0.01062
661.50000,0.01144
662.00000,0.00963
662.50000,0.00920
663.00000,0.00851
663.50000,0.00951
664.00000,0.00887
664.50000,0.00996
665.00000,0.01134
665.50000,0.00981
666.00000,0.01126
666.50000,0.01137
667.00000,0.01041
667.50000,0.01328
668.00000,0.01230
668.50000,0.01004
669.00000,0.01190
669.50000,0.01190
670.00000,0.01134
670.50000,0.01172
671.00000,0.01193
671.50000,0.00993
672.00000,0.01054
672.50000,0.00957
673.00000,0.01085
673.50000,0.00922
674.00000,0.00972
674.50000,0.00948
675.00000,0.00967
675.50000,0.00882
676.00000,0.00787
676.50000,0.00838
677.00000,0.00925
677.50000,0.00885
678.00000,0.00940
678.50000,0.01180
679.00000,0.00861
679.50000,0.01044
680.00000,0.00992
680.50000,0.00990
681.00000,0.00995
681.50000,0.01103
682.00000,0.01111
682.50000,0.00987
683.00000,0.00757
683.50000,0.00797
684.00000,0.00861
684.50000,0.00891
685.00000,0.00893
685.50000,0.00697
686.00000,0.00717
686.50000,0.00909
687.00000,0.00873
687.50000,0.00801
688.00000,0.00993
688.50000,0.00909
689.00000,0.00797
689.50000,0.00711
690.00000,0.00826
690.50000,0.00870
691.00000,0.00867
691.50000,0.00935
692.00000,0.00816
692.50000,0.00826
693.00000,0.00760
693.50000,0.00731
694.00000,0.00658
694.50000,0.00769
695.00000,0.00803
695.50000,0.00981
696.00000,0.01012
696.50000,0.00940
697.00000,0.00969
697.50000,0.00996
698.00000,0.00835
698.50000,0.00676
699.00000,0.00697
699.50000,0.00607
700.00000,0.00661
700.50000,0.00941
701.00000,0.00778
701.50000,0.00894
702.00000,0.00896
702.50000,0.00705
703.00000,0.00713
703.50000,0.00598
704.00000,0.00688
704.50000,0.00745
705.00000,0.00606
705.50000,0.00711
706.00000,0.00716
706.50000,0.00925
707.00000,0.00775
707.50000,0.00731
708.00000,0.01047
708.50000,0.00911
709.00000,0.00911
709.50000,0.00742
710.00000,0.00684
710.50000,0.00531
711.00000,0.00427
711.50000,0.00473
712.00000,0.00540
712.50000,0.00618
713.00000,0.00574
713.50000,0.00552
714.00000,0.00615
714.50000,0.00685
715.00000,0.00726
715.50000,0.00798
716.00000,0.00748
716.50000,0.00542
717.00000,0.00613
717.50000,0.00491
718.00000,0.00591
718.50000,0.00648
719.00000,0.00650
719.50000,0.00752
720.00000,0.00848
720.50000,0.00784
721.00000,0.00604
721.50000,0.00616
722.00000,0.00459
722.50000,0.00726
723.00000,0.00591
723.50000,0.00754
724.00000,0.00670
724.50000,0.00894
725.00000,0.00906
725.50000,0.00717
726.00000,0.00891
726.50000,0.00905
727.00000,0.00703
727.50000,0.00650
728.00000,0.00842
728.50000,0.00659
729.00000,0.00671
729.50000,0.00587
730.00000,0.00549
730.50000,0.00648
731.00000,0.00482
731.50000,0.00459
732.00000,0.00320
732.50000,0.00468
733.00000,0.00369
733.50000,0.00531
734.00000,0.00653
734.50000,0.00587
735.00000,0.00658
735.50000,0.00618
736.00000,0.00569
736.50000,0.00650
737.00000,0.00339
737.50000,0.00108
738.00000,0.00304
738.50000,0.00360
739.00000,0.00583
739.50000,0.00667
740.00000,0.00298
740.50000,0.00427
741.00000,0.00571
741.50000,0.00378
742.00000,0.00363
742.50000,0.00415
743.00000,0.00290
743.50000,0.00470
744.00000,0.00655
744.50000,0.00531
745.00000,0.00311
745.50000,0.00325
746.00000,0.00218
746.50000,0.00470
747.00000,0.00490
747.50000,0.00558
748.00000,0.00456
748.50000,0.00522
749.00000,0.00450
749.50000,0.00441
750.00000,0.00426
750.50000,0.00545
751.00000,0.00285
751.50000,0.00616
752.00000,0.00316
752.50000,0.00391
753.00000,0.00497
753.50000,0.00433
754.00000,0.00392
754.50000,0.00475
755.00000,0.00319
755.50000,0.00397
756.00000,0.00632
756.50000,0.00491
757.00000,0.00424
757.50000,0.00459
758.00000,0.00580
758.50000,0.00478
759.00000,0.00195
759.50000,0.00240
760.00000,0.00505
760.50000,0.00475
761.00000,0.00180
761.50000,0.00130
762.00000,0.00360
762.50000,0.00577
763.00000,0.00607
763.50000,0.00668
764.00000,0.00516
764.50000,0.00435
765.00000,0.00279
765.50000,0.00320
766.00000,0.00310
766.50000,0.00446
767.00000,0.00433
767.50000,0.00441
768.00000,0.00342
768.50000,0.00380
769.00000,0.00444
769.50000,0.00339
770.00000,0.00316
770.50000,0.00391
771.00000,0.00453
771.50000,0.00235
772.00000,0.00146
772.50000,0.00082
773.00000,0.00345
773.50000,0.00198
774.00000,0.00166
774.50000,0.00249
775.00000,0.00151
775.50000,-0.00044
776.00000,0.00075
776.50000,0.00369
777.00000,0.00417
777.50000,0.00514
778.00000,0.00510
778.50000,0.00470
779.00000,0.00415
779.50000,0.00313
780.00000,0.00526
780.50000,0.00317
781.00000,0.00302
781.50000,0.00421
782.00000,0.00583
782.50000,0.00594
783.00000,0.00374
783.50000,0.00229
784.00000,0.00627
784.50000,0.00331
785.00000,0.00261
785.50000,0.00412
786.00000,0.00481
786.50000,0.00636
787.00000,0.00534
787.50000,0.00507
788.00000,0.00337
788.50000,0.00311
789.00000,0.00212
789.50000,0.00221
790.00000,0.00446
790.50000,0.00421
791.00000,0.00443
791.50000,0.00870
792.00000,0.00652
792.50000,0.00464
793.00000,0.00455
793.50000,0.00322
794.00000,0.00327
794.50000,0.00540
795.00000,0.00101
795.50000,0.00262
796.00000,0.00214
796.50000,0.00163
797.00000,0.00247
797.50000,0.00401
798.00000,0.00493
798.50000,0.00571
799.00000,0.00435
799.50000,0.00418
800.00000,0.00253
800.50000, 
801.00000, 
801.50000, 
802.00000, 
802.50000, 
803.00000, 
803.50000, 
804.00000, 
804.50000, 
805.00000, 
805.50000, 
806.00000, 
806.50000, 
807.00000, 
807.50000, 
808.00000, 
808.50000, 
809.00000, 
809.50000, 
810.00000, 
810.50000, 
811.00000, 
811.50000, 
812.00000, 
812.50000, 
813.00000, 
813.50000, 
814.00000, 
814.50000, 
815.00000, 
815.50000, 
816.00000, 
816.50000, 
817.00000, 
817.50000, 
818.00000, 
818.50000, 
819.00000, 
819.50000, 
820.00000, 
820.50000, 
821.00000, 
821.50000, 
822.00000, 
822.50000, 
823.00000, 
823.50000, 
824.00000, 
824.50000, 
825.00000, 
825.50000, 
826.00000, 
826.50000, 
827.00000, 
827.50000, 
828.00000, 
828.50000, 
829.00000, 
829.50000, 
830.00000, 
830.50000, 
831.00000, 
831.50000, 
832.00000, 
832.50000, 
833.00000, 
833.50000, 
834.00000, 
834.50000, 
835.00000, 
835.50000, 
836.00000, 
836.50000, 
837.00000, 
837.50000, 
838.00000, 
838.50000, 
839.00000, 
839.50000, 
840.00000, 
840.50000, 
841.00000, 
841.50000, 
842.00000, 
842.50000, 
843.00000, 
843.50000, 
844.00000, 
844.50000, 
845.00000, 
845.50000, 
846.00000, 
846.50000, 
847.00000, 
847.50000, 
848.00000, 
848.50000, 
849.00000, 
849.50000, 
850.00000, 
850.50000, 
851.00000, 
851.50000, 
852.00000, 
852.50000, 
853.00000, 
853.50000, 
854.00000, 
854.50000, 
855.00000, 
855.50000, 
856.00000, 
856.50000, 
857.00000, 
857.50000, 
858.00000, 
858.50000, 
859.00000, 
859.50000, 
860.00000, 
860.50000, 
861.00000, 
861.50000, 
862.00000, 
862.50000, 
863.00000, 
863.50000, 
864.00000, 
864.50000, 
865.00000, 
865.50000, 
866.00000, 
866.50000, 
867.00000, 
867.50000, 
868.00000, 
868.50000, 
869.00000, 
869.50000, 
870.00000, 
870.50000, 
871.00000, 
871.50000, 
872.00000, 
872.50000, 
873.00000, 
873.50000, 
874.00000, 
874.50000, 
875.00000, 
875.50000, 
876.00000, 
876.50000, 
877.00000, 
877.50000, 
878.00000, 
878.50000, 
879.00000, 
879.50000, 
880.00000, 
880.50000, 
881.00000, 
881.50000, 
882.00000, 
882.50000, 
883.00000, 
883.50000, 
884.00000, 
884.50000, 
885.00000, 
885.50000, 
886.00000, 
886.50000, 
887.00000, 
887.50000, 
888.00000, 
888.50000, 
889.00000, 
889.50000, 
890.00000, 
890.50000, 
891.00000, 
891.50000, 
892.00000, 
892.50000, 
893.00000, 
893.50000, 
894.00000, 
894.50000, 
895.00000, 
895.50000, 
896.00000, 
896.50000, 
897.00000, 
897.50000, 
898.00000, 
898.50000, 
899.00000, 
899.50000, 
900.00000, 
