"Storage 153133 - RawData - C:\Documents and Settings\user\My Documents\Adam_Hughes\11_5_12\25nm_np\NPConcentration\File_121105_153133.spc"
"Wavelength nm.","Abs."
400.00000,0.34268
400.50000,0.34612
401.00000,0.34480
401.50000,0.34764
402.00000,0.34085
402.50000,0.34332
403.00000,0.34062
403.50000,0.34425
404.00000,0.34624
404.50000,0.34387
405.00000,0.34471
405.50000,0.34372
406.00000,0.34418
406.50000,0.34508
407.00000,0.34286
407.50000,0.33971
408.00000,0.33836
408.50000,0.33690
409.00000,0.33890
409.50000,0.33965
410.00000,0.34131
410.50000,0.34282
411.00000,0.34036
411.50000,0.33942
412.00000,0.34059
412.50000,0.33817
413.00000,0.33835
413.50000,0.33418
414.00000,0.33675
414.50000,0.33447
415.00000,0.33418
415.50000,0.33617
416.00000,0.33681
416.50000,0.33853
417.00000,0.33476
417.50000,0.33557
418.00000,0.33261
418.50000,0.33519
419.00000,0.33447
419.50000,0.33487
420.00000,0.33276
420.50000,0.33350
421.00000,0.33459
421.50000,0.33765
422.00000,0.33701
422.50000,0.33781
423.00000,0.33760
423.50000,0.33217
424.00000,0.33046
424.50000,0.33182
425.00000,0.33131
425.50000,0.33311
426.00000,0.33150
426.50000,0.33394
427.00000,0.33368
427.50000,0.33235
428.00000,0.33162
428.50000,0.33151
429.00000,0.33180
429.50000,0.33089
430.00000,0.33186
430.50000,0.32953
431.00000,0.32997
431.50000,0.32857
432.00000,0.32758
432.50000,0.33217
433.00000,0.33476
433.50000,0.33350
434.00000,0.33118
434.50000,0.32953
435.00000,0.32939
435.50000,0.32753
436.00000,0.32996
436.50000,0.33226
437.00000,0.32863
437.50000,0.33247
438.00000,0.33260
438.50000,0.33209
439.00000,0.33083
439.50000,0.32803
440.00000,0.32921
440.50000,0.32898
441.00000,0.32883
441.50000,0.32988
442.00000,0.32880
442.50000,0.32735
443.00000,0.32762
443.50000,0.32683
444.00000,0.32765
444.50000,0.32669
445.00000,0.32692
445.50000,0.33066
446.00000,0.32970
446.50000,0.32970
447.00000,0.33252
447.50000,0.33339
448.00000,0.33409
448.50000,0.33064
449.00000,0.33127
449.50000,0.32973
450.00000,0.33023
450.50000,0.33028
451.00000,0.33266
451.50000,0.33186
452.00000,0.33083
452.50000,0.33147
453.00000,0.33409
453.50000,0.32840
454.00000,0.33101
454.50000,0.33073
455.00000,0.33351
455.50000,0.33398
456.00000,0.33540
456.50000,0.33476
457.00000,0.33412
457.50000,0.33379
458.00000,0.33157
458.50000,0.33296
459.00000,0.33551
459.50000,0.33495
460.00000,0.33533
460.50000,0.33455
461.00000,0.33752
461.50000,0.33557
462.00000,0.33681
462.50000,0.33725
463.00000,0.33900
463.50000,0.33766
464.00000,0.34129
464.50000,0.34042
465.00000,0.34328
465.50000,0.34111
466.00000,0.34157
466.50000,0.34476
467.00000,0.34346
467.50000,0.34372
468.00000,0.34538
468.50000,0.34422
469.00000,0.34508
469.50000,0.34753
470.00000,0.34761
470.50000,0.35109
471.00000,0.35271
471.50000,0.35034
472.00000,0.35118
472.50000,0.35089
473.00000,0.35164
473.50000,0.35210
474.00000,0.35187
474.50000,0.35573
475.00000,0.35759
475.50000,0.35686
476.00000,0.35883
476.50000,0.36377
477.00000,0.36415
477.50000,0.36397
478.00000,0.36581
478.50000,0.36607
479.00000,0.36839
479.50000,0.36850
480.00000,0.36972
480.50000,0.37296
481.00000,0.37535
481.50000,0.37801
482.00000,0.38072
482.50000,0.38179
483.00000,0.38161
483.50000,0.38680
484.00000,0.38823
484.50000,0.38751
485.00000,0.39186
485.50000,0.39388
486.00000,0.39737
486.50000,0.39777
487.00000,0.40065
487.50000,0.40157
488.00000,0.40578
488.50000,0.40652
489.00000,0.41164
489.50000,0.41548
490.00000,0.41759
490.50000,0.42065
491.00000,0.42134
491.50000,0.42470
492.00000,0.42661
492.50000,0.43347
493.00000,0.43665
493.50000,0.43985
494.00000,0.44331
494.50000,0.44537
495.00000,0.44931
495.50000,0.45438
496.00000,0.45824
496.50000,0.46155
497.00000,0.46570
497.50000,0.47009
498.00000,0.47523
498.50000,0.47607
499.00000,0.48254
499.50000,0.48558
500.00000,0.48976
500.50000,0.49312
501.00000,0.49783
501.50000,0.50218
502.00000,0.50543
502.50000,0.50830
503.00000,0.51302
503.50000,0.51779
504.00000,0.52164
504.50000,0.52637
505.00000,0.53020
505.50000,0.53523
506.00000,0.53914
506.50000,0.54205
507.00000,0.54630
507.50000,0.54822
508.00000,0.55344
508.50000,0.55844
509.00000,0.56041
509.50000,0.56509
510.00000,0.57021
510.50000,0.57242
511.00000,0.57677
511.50000,0.57881
512.00000,0.58214
512.50000,0.58549
513.00000,0.58861
513.50000,0.59108
514.00000,0.59502
514.50000,0.59824
515.00000,0.60170
515.50000,0.60323
516.00000,0.60547
516.50000,0.61003
517.00000,0.60934
517.50000,0.61084
518.00000,0.61546
518.50000,0.61687
519.00000,0.61902
519.50000,0.61885
520.00000,0.61935
520.50000,0.62135
521.00000,0.62277
521.50000,0.62216
522.00000,0.62410
522.50000,0.62482
523.00000,0.62486
523.50000,0.62648
524.00000,0.62340
524.50000,0.62480
525.00000,0.62610
525.50000,0.62399
526.00000,0.62149
526.50000,0.61972
527.00000,0.61972
527.50000,0.61731
528.00000,0.61760
528.50000,0.61542
529.00000,0.61353
529.50000,0.61519
530.00000,0.61234
530.50000,0.61050
531.00000,0.60654
531.50000,0.60493
532.00000,0.60323
532.50000,0.60092
533.00000,0.59666
533.50000,0.59436
534.00000,0.59198
534.50000,0.58650
535.00000,0.58191
535.50000,0.57997
536.00000,0.57748
536.50000,0.57350
537.00000,0.56641
537.50000,0.56644
538.00000,0.56120
538.50000,0.55733
539.00000,0.55310
539.50000,0.55022
540.00000,0.54413
540.50000,0.54086
541.00000,0.53528
541.50000,0.53133
542.00000,0.52664
542.50000,0.52028
543.00000,0.51620
543.50000,0.51050
544.00000,0.50447
544.50000,0.50168
545.00000,0.49275
545.50000,0.49117
546.00000,0.48643
546.50000,0.48062
547.00000,0.47569
547.50000,0.47046
548.00000,0.46436
548.50000,0.45815
549.00000,0.45265
549.50000,0.44806
550.00000,0.44135
550.50000,0.43747
551.00000,0.43225
551.50000,0.42606
552.00000,0.42142
552.50000,0.41473
553.00000,0.41141
553.50000,0.40529
554.00000,0.40031
554.50000,0.39314
555.00000,0.39067
555.50000,0.38487
556.00000,0.37917
556.50000,0.37538
557.00000,0.36870
557.50000,0.36485
558.00000,0.36087
558.50000,0.35751
559.00000,0.35159
559.50000,0.34555
560.00000,0.34265
560.50000,0.33778
561.00000,0.33377
561.50000,0.32927
562.00000,0.32539
562.50000,0.32133
563.00000,0.31561
563.50000,0.31233
564.00000,0.30876
564.50000,0.30574
565.00000,0.30283
565.50000,0.29726
566.00000,0.29366
566.50000,0.28874
567.00000,0.28625
567.50000,0.28323
568.00000,0.27988
568.50000,0.27510
569.00000,0.27029
569.50000,0.26678
570.00000,0.26219
570.50000,0.26004
571.00000,0.25717
571.50000,0.25511
572.00000,0.24980
572.50000,0.24634
573.00000,0.24313
573.50000,0.24051
574.00000,0.23734
574.50000,0.23488
575.00000,0.23100
575.50000,0.22827
576.00000,0.22458
576.50000,0.22205
577.00000,0.22003
577.50000,0.21635
578.00000,0.21451
578.50000,0.21162
579.00000,0.20905
579.50000,0.20587
580.00000,0.20238
580.50000,0.20088
581.00000,0.19742
581.50000,0.19530
582.00000,0.19405
582.50000,0.19057
583.00000,0.18790
583.50000,0.18842
584.00000,0.18361
584.50000,0.18115
585.00000,0.18022
585.50000,0.17741
586.00000,0.17453
586.50000,0.17403
587.00000,0.17245
587.50000,0.17061
588.00000,0.16725
588.50000,0.16782
589.00000,0.16341
589.50000,0.16125
590.00000,0.16132
590.50000,0.15901
591.00000,0.15688
591.50000,0.15361
592.00000,0.15382
592.50000,0.15129
593.00000,0.14920
593.50000,0.14774
594.00000,0.14612
594.50000,0.14333
595.00000,0.14339
595.50000,0.14175
596.00000,0.13989
596.50000,0.13863
597.00000,0.13792
597.50000,0.13708
598.00000,0.13504
598.50000,0.13382
599.00000,0.13422
599.50000,0.13443
600.00000,0.13173
600.50000,0.12892
601.00000,0.12659
601.50000,0.12485
602.00000,0.12367
602.50000,0.12344
603.00000,0.12334
603.50000,0.12238
604.00000,0.12048
604.50000,0.11945
605.00000,0.11806
605.50000,0.11714
606.00000,0.11603
606.50000,0.11691
607.00000,0.11427
607.50000,0.11369
608.00000,0.11215
608.50000,0.11104
609.00000,0.11079
609.50000,0.10959
610.00000,0.10880
610.50000,0.10829
611.00000,0.10753
611.50000,0.10716
612.00000,0.10544
612.50000,0.10454
613.00000,0.10339
613.50000,0.10448
614.00000,0.10371
614.50000,0.10222
615.00000,0.10129
615.50000,0.10031
616.00000,0.09998
616.50000,0.09795
617.00000,0.09842
617.50000,0.09746
618.00000,0.09561
618.50000,0.09454
619.00000,0.09418
619.50000,0.09457
620.00000,0.09332
620.50000,0.09201
621.00000,0.09224
621.50000,0.09167
622.00000,0.09085
622.50000,0.08804
623.00000,0.08919
623.50000,0.08755
624.00000,0.08829
624.50000,0.08670
625.00000,0.08629
625.50000,0.08420
626.00000,0.08661
626.50000,0.08502
627.00000,0.08495
627.50000,0.08482
628.00000,0.08304
628.50000,0.08315
629.00000,0.08086
629.50000,0.08060
630.00000,0.08000
630.50000,0.07918
631.00000,0.07811
631.50000,0.07654
632.00000,0.07912
632.50000,0.07635
633.00000,0.07764
633.50000,0.07729
634.00000,0.07516
634.50000,0.07639
635.00000,0.07568
635.50000,0.07484
636.00000,0.07527
636.50000,0.07353
637.00000,0.07396
637.50000,0.07175
638.00000,0.07198
638.50000,0.07047
639.00000,0.07137
639.50000,0.07080
640.00000,0.07072
640.50000,0.06905
641.00000,0.07092
641.50000,0.06975
642.00000,0.07104
642.50000,0.06776
643.00000,0.06831
643.50000,0.06685
644.00000,0.06755
644.50000,0.06755
645.00000,0.06812
645.50000,0.06660
646.00000,0.06792
646.50000,0.06552
647.00000,0.06473
647.50000,0.06508
648.00000,0.06252
648.50000,0.06262
649.00000,0.06369
649.50000,0.06419
650.00000,0.06305
650.50000,0.06163
651.00000,0.05969
651.50000,0.05911
652.00000,0.05945
652.50000,0.06081
653.00000,0.05966
653.50000,0.06064
654.00000,0.05965
654.50000,0.05734
655.00000,0.05725
655.50000,0.05856
656.00000,0.05821
656.50000,0.05650
657.00000,0.05614
657.50000,0.05533
658.00000,0.05643
658.50000,0.05582
659.00000,0.05574
659.50000,0.05655
660.00000,0.05551
660.50000,0.05373
661.00000,0.05400
661.50000,0.05273
662.00000,0.05154
662.50000,0.05075
663.00000,0.05257
663.50000,0.05037
664.00000,0.05086
664.50000,0.05193
665.00000,0.05067
665.50000,0.05113
666.00000,0.05025
666.50000,0.05119
667.00000,0.04877
667.50000,0.05055
668.00000,0.04926
668.50000,0.04843
669.00000,0.04984
669.50000,0.04968
670.00000,0.04813
670.50000,0.04829
671.00000,0.04790
671.50000,0.04799
672.00000,0.04616
672.50000,0.04716
673.00000,0.04759
673.50000,0.04660
674.00000,0.04552
674.50000,0.04485
675.00000,0.04591
675.50000,0.04547
676.00000,0.04382
676.50000,0.04314
677.00000,0.04364
677.50000,0.04411
678.00000,0.04449
678.50000,0.04524
679.00000,0.04292
679.50000,0.04222
680.00000,0.04248
680.50000,0.04314
681.00000,0.04051
681.50000,0.04468
682.00000,0.04265
682.50000,0.04124
683.00000,0.03961
683.50000,0.04018
684.00000,0.03874
684.50000,0.03909
685.00000,0.03961
685.50000,0.03789
686.00000,0.03763
686.50000,0.03897
687.00000,0.03844
687.50000,0.03676
688.00000,0.03943
688.50000,0.03899
689.00000,0.03734
689.50000,0.03735
690.00000,0.03853
690.50000,0.03610
691.00000,0.03621
691.50000,0.03404
692.00000,0.03679
692.50000,0.03508
693.00000,0.03545
693.50000,0.03413
694.00000,0.03621
694.50000,0.03600
695.00000,0.03526
695.50000,0.03670
696.00000,0.03621
696.50000,0.03589
697.00000,0.03598
697.50000,0.03629
698.00000,0.03412
698.50000,0.03189
699.00000,0.03276
699.50000,0.03349
700.00000,0.03250
700.50000,0.03415
701.00000,0.03320
701.50000,0.03188
702.00000,0.03394
702.50000,0.03064
703.00000,0.03172
703.50000,0.03238
704.00000,0.03194
704.50000,0.03331
705.00000,0.03090
705.50000,0.03082
706.00000,0.03059
706.50000,0.03113
707.00000,0.03123
707.50000,0.03238
708.00000,0.03186
708.50000,0.03226
709.00000,0.03181
709.50000,0.03046
710.00000,0.03011
710.50000,0.02748
711.00000,0.02768
711.50000,0.02789
712.00000,0.02765
712.50000,0.02654
713.00000,0.02803
713.50000,0.02802
714.00000,0.02821
714.50000,0.02829
715.00000,0.02907
715.50000,0.02968
716.00000,0.02884
716.50000,0.02631
717.00000,0.02669
717.50000,0.02626
718.00000,0.02782
718.50000,0.02765
719.00000,0.02692
719.50000,0.02946
720.00000,0.02896
720.50000,0.02681
721.00000,0.02802
721.50000,0.02641
722.00000,0.02684
722.50000,0.02524
723.00000,0.02542
723.50000,0.02649
724.00000,0.02525
724.50000,0.02542
725.00000,0.02774
725.50000,0.02812
726.00000,0.02678
726.50000,0.02693
727.00000,0.02736
727.50000,0.02521
728.00000,0.02457
728.50000,0.02531
729.00000,0.02577
729.50000,0.02296
730.00000,0.02272
730.50000,0.02452
731.00000,0.02359
731.50000,0.02124
732.00000,0.02255
732.50000,0.02397
733.00000,0.02304
733.50000,0.02322
734.00000,0.02254
734.50000,0.02209
735.00000,0.02557
735.50000,0.02531
736.00000,0.02309
736.50000,0.02309
737.00000,0.02110
737.50000,0.01984
738.00000,0.01944
738.50000,0.01901
739.00000,0.02316
739.50000,0.02249
740.00000,0.02223
740.50000,0.02249
741.00000,0.02138
741.50000,0.02094
742.00000,0.02118
742.50000,0.02003
743.00000,0.02008
743.50000,0.02116
744.00000,0.02180
744.50000,0.02390
745.00000,0.02188
745.50000,0.02029
746.00000,0.01791
746.50000,0.01921
747.00000,0.02103
747.50000,0.02087
748.00000,0.02003
748.50000,0.02135
749.00000,0.02127
749.50000,0.01918
750.00000,0.01900
750.50000,0.01886
751.00000,0.01993
751.50000,0.01923
752.00000,0.01750
752.50000,0.01738
753.00000,0.01875
753.50000,0.01895
754.00000,0.01970
754.50000,0.01999
755.00000,0.01994
755.50000,0.02151
756.00000,0.02092
756.50000,0.01913
757.00000,0.01755
757.50000,0.01880
758.00000,0.01823
758.50000,0.01736
759.00000,0.01785
759.50000,0.01724
760.00000,0.01689
760.50000,0.01776
761.00000,0.01714
761.50000,0.01489
762.00000,0.01599
762.50000,0.01993
763.00000,0.02126
763.50000,0.01955
764.00000,0.01732
764.50000,0.01764
765.00000,0.01794
765.50000,0.01662
766.00000,0.01587
766.50000,0.01563
767.00000,0.01730
767.50000,0.01642
768.00000,0.01576
768.50000,0.01741
769.00000,0.01746
769.50000,0.01506
770.00000,0.01563
770.50000,0.01547
771.00000,0.01781
771.50000,0.01529
772.00000,0.01433
772.50000,0.01477
773.00000,0.01543
773.50000,0.01508
774.00000,0.01390
774.50000,0.01570
775.00000,0.01517
775.50000,0.01266
776.00000,0.01389
776.50000,0.01468
777.00000,0.01503
777.50000,0.01891
778.00000,0.01732
778.50000,0.01758
779.00000,0.01373
779.50000,0.01360
780.00000,0.01640
780.50000,0.01505
781.00000,0.01445
781.50000,0.01549
782.00000,0.01648
782.50000,0.01694
783.00000,0.01541
783.50000,0.01395
784.00000,0.01440
784.50000,0.01701
785.00000,0.01291
785.50000,0.01767
786.00000,0.01476
786.50000,0.01428
787.00000,0.01622
787.50000,0.01353
788.00000,0.01524
788.50000,0.01563
789.00000,0.01445
789.50000,0.01653
790.00000,0.01515
790.50000,0.01431
791.00000,0.01419
791.50000,0.01486
792.00000,0.01512
792.50000,0.01523
793.00000,0.01579
793.50000,0.01146
794.00000,0.01395
794.50000,0.01425
795.00000,0.01158
795.50000,0.01225
796.00000,0.01523
796.50000,0.01147
797.00000,0.01347
797.50000,0.01408
798.00000,0.01552
798.50000,0.01390
799.00000,0.01216
799.50000,0.01266
800.00000,0.01155
800.50000, 
801.00000, 
801.50000, 
802.00000, 
802.50000, 
803.00000, 
803.50000, 
804.00000, 
804.50000, 
805.00000, 
805.50000, 
806.00000, 
806.50000, 
807.00000, 
807.50000, 
808.00000, 
808.50000, 
809.00000, 
809.50000, 
810.00000, 
810.50000, 
811.00000, 
811.50000, 
812.00000, 
812.50000, 
813.00000, 
813.50000, 
814.00000, 
814.50000, 
815.00000, 
815.50000, 
816.00000, 
816.50000, 
817.00000, 
817.50000, 
818.00000, 
818.50000, 
819.00000, 
819.50000, 
820.00000, 
820.50000, 
821.00000, 
821.50000, 
822.00000, 
822.50000, 
823.00000, 
823.50000, 
824.00000, 
824.50000, 
825.00000, 
825.50000, 
826.00000, 
826.50000, 
827.00000, 
827.50000, 
828.00000, 
828.50000, 
829.00000, 
829.50000, 
830.00000, 
830.50000, 
831.00000, 
831.50000, 
832.00000, 
832.50000, 
833.00000, 
833.50000, 
834.00000, 
834.50000, 
835.00000, 
835.50000, 
836.00000, 
836.50000, 
837.00000, 
837.50000, 
838.00000, 
838.50000, 
839.00000, 
839.50000, 
840.00000, 
840.50000, 
841.00000, 
841.50000, 
842.00000, 
842.50000, 
843.00000, 
843.50000, 
844.00000, 
844.50000, 
845.00000, 
845.50000, 
846.00000, 
846.50000, 
847.00000, 
847.50000, 
848.00000, 
848.50000, 
849.00000, 
849.50000, 
850.00000, 
850.50000, 
851.00000, 
851.50000, 
852.00000, 
852.50000, 
853.00000, 
853.50000, 
854.00000, 
854.50000, 
855.00000, 
855.50000, 
856.00000, 
856.50000, 
857.00000, 
857.50000, 
858.00000, 
858.50000, 
859.00000, 
859.50000, 
860.00000, 
860.50000, 
861.00000, 
861.50000, 
862.00000, 
862.50000, 
863.00000, 
863.50000, 
864.00000, 
864.50000, 
865.00000, 
865.50000, 
866.00000, 
866.50000, 
867.00000, 
867.50000, 
868.00000, 
868.50000, 
869.00000, 
869.50000, 
870.00000, 
870.50000, 
871.00000, 
871.50000, 
872.00000, 
872.50000, 
873.00000, 
873.50000, 
874.00000, 
874.50000, 
875.00000, 
875.50000, 
876.00000, 
876.50000, 
877.00000, 
877.50000, 
878.00000, 
878.50000, 
879.00000, 
879.50000, 
880.00000, 
880.50000, 
881.00000, 
881.50000, 
882.00000, 
882.50000, 
883.00000, 
883.50000, 
884.00000, 
884.50000, 
885.00000, 
885.50000, 
886.00000, 
886.50000, 
887.00000, 
887.50000, 
888.00000, 
888.50000, 
889.00000, 
889.50000, 
890.00000, 
890.50000, 
891.00000, 
891.50000, 
892.00000, 
892.50000, 
893.00000, 
893.50000, 
894.00000, 
894.50000, 
895.00000, 
895.50000, 
896.00000, 
896.50000, 
897.00000, 
897.50000, 
898.00000, 
898.50000, 
899.00000, 
899.50000, 
900.00000, 
