SpectraSuite Data File
++++++++++++++++++++++++++++++++++++
Date: Mon Oct 22 15:14:26 EDT 2012
User: group
Dark Spectrum Present: No
Reference Spectrum Present: No
Number of Sampled Component Spectra: 1
Spectrometers: USB2E7196
Integration Time (usec): 91000 (USB2E7196)
Spectra Averaged: 30 (USB2E7196)
Boxcar Smoothing: 10 (USB2E7196)
Correct for Electrical Dark: No (USB2E7196)
Strobe/Lamp Enabled: No (USB2E7196)
Correct for Detector Non-linearity: No (USB2E7196)
Correct for Stray Light: No (USB2E7196)
Number of Pixels in Processed Spectrum: 2048
>>>>>Begin Processed Spectral Data<<<<<
339.09	0.00
339.48	223.30
339.86	225.33
340.24	226.80
340.63	228.30
341.01	233.53
341.39	230.43
341.78	232.83
342.16	234.07
342.54	233.27
342.93	222.08
343.31	233.33
343.69	233.87
344.07	234.32
344.46	234.72
344.84	235.10
345.22	235.22
345.60	235.58
345.99	235.76
346.37	235.82
346.75	235.93
347.13	236.01
347.52	236.10
347.90	236.19
348.28	236.21
348.66	236.31
349.05	236.26
349.43	236.36
349.81	236.41
350.19	236.45
350.57	236.53
350.96	236.58
351.34	236.69
351.72	236.82
352.10	237.02
352.48	237.14
352.87	237.21
353.25	237.24
353.63	237.27
354.01	237.38
354.39	237.51
354.77	237.66
355.15	237.83
355.54	237.91
355.92	237.96
356.30	238.05
356.68	238.27
357.06	238.41
357.44	238.44
357.82	238.46
358.20	238.65
358.58	238.73
358.97	238.84
359.35	238.92
359.73	239.05
360.11	239.03
360.49	239.09
360.87	239.15
361.25	239.29
361.63	239.41
362.01	239.45
362.39	239.49
362.77	239.51
363.15	239.46
363.53	239.52
363.91	239.56
364.29	239.60
364.67	239.38
365.05	239.45
365.43	239.53
365.81	239.60
366.19	239.63
366.57	239.69
366.95	239.68
367.33	239.63
367.71	239.60
368.09	239.63
368.47	239.56
368.85	239.52
369.23	239.50
369.61	239.39
369.99	239.44
370.37	239.42
370.75	239.47
371.13	239.48
371.51	239.37
371.89	239.34
372.27	239.30
372.65	239.27
373.03	239.11
373.41	238.99
373.78	238.88
374.16	238.73
374.54	238.64
374.92	238.56
375.30	238.50
375.68	238.40
376.06	238.34
376.44	238.34
376.82	238.31
377.19	238.23
377.57	238.16
377.95	237.98
378.33	237.96
378.71	237.79
379.09	237.69
379.47	237.68
379.84	237.57
380.22	237.47
380.60	237.43
380.98	237.37
381.36	237.32
381.73	237.25
382.11	237.19
382.49	237.15
382.87	237.10
383.25	237.01
383.62	237.23
384.00	237.13
384.38	237.11
384.76	237.10
385.13	237.18
385.51	237.10
385.89	237.06
386.27	236.97
386.64	237.05
387.02	237.01
387.40	237.00
387.78	236.99
388.15	237.01
388.53	236.97
388.91	236.99
389.29	236.94
389.66	236.95
390.04	236.95
390.42	236.90
390.79	236.91
391.17	236.88
391.55	236.56
391.92	236.60
392.30	236.63
392.68	236.55
393.05	236.52
393.43	236.54
393.81	236.54
394.18	236.53
394.56	236.48
394.94	236.53
395.31	236.47
395.69	236.57
396.06	236.65
396.44	236.69
396.82	236.72
397.19	236.90
397.57	236.89
397.95	236.98
398.32	236.99
398.70	237.05
399.07	237.23
399.45	237.31
399.82	237.39
400.20	237.41
400.58	237.54
400.95	237.56
401.33	237.72
401.70	238.00
402.08	238.10
402.45	238.17
402.83	238.32
403.20	238.50
403.58	238.58
403.95	238.70
404.33	238.85
404.71	239.07
405.08	239.39
405.46	239.61
405.83	239.78
406.21	240.04
406.58	240.34
406.96	240.57
407.33	240.94
407.70	241.35
408.08	241.90
408.45	242.34
408.83	242.88
409.20	243.29
409.58	243.69
409.95	244.31
410.33	244.98
410.70	245.65
411.08	246.39
411.45	247.15
411.82	247.90
412.20	248.81
412.57	249.87
412.95	250.69
413.32	251.75
413.69	252.90
414.07	254.16
414.44	255.49
414.82	256.91
415.19	258.44
415.56	260.04
415.94	261.66
416.31	263.61
416.68	265.51
417.06	267.76
417.43	269.88
417.81	272.24
418.18	274.75
418.55	277.35
418.93	280.20
419.30	283.16
419.67	286.33
420.04	289.55
420.42	292.93
420.79	296.82
421.16	300.81
421.54	304.93
421.91	309.10
422.28	313.60
422.66	318.35
423.03	323.03
423.40	327.98
423.77	333.22
424.15	338.61
424.52	344.15
424.89	350.20
425.26	356.10
425.64	361.80
426.01	367.98
426.38	374.47
426.75	380.91
427.13	387.79
427.50	394.96
427.87	402.46
428.24	409.96
428.61	417.32
428.99	425.37
429.36	434.06
429.73	442.74
430.10	451.25
430.47	460.08
430.85	469.38
431.22	478.98
431.59	489.34
431.96	499.19
432.33	510.23
432.70	521.08
433.08	533.69
433.45	545.63
433.82	557.52
434.19	570.77
434.56	583.82
434.93	596.37
435.30	608.91
435.68	622.83
436.05	636.53
436.42	650.26
436.79	662.86
437.16	676.49
437.53	690.80
437.90	705.13
438.27	719.40
438.64	733.76
439.01	747.46
439.38	759.82
439.75	771.82
440.13	785.21
440.50	797.63
440.87	808.20
441.24	819.05
441.61	830.95
441.98	839.87
442.35	850.30
442.72	860.47
443.09	870.26
443.46	876.59
443.83	880.91
444.20	884.72
444.57	890.07
444.94	892.70
445.31	895.38
445.68	897.61
446.05	898.63
446.42	897.98
446.79	896.57
447.16	894.85
447.53	893.54
447.90	888.55
448.27	883.59
448.64	876.40
449.01	871.24
449.37	861.99
449.74	853.26
450.11	842.49
450.48	831.25
450.85	819.73
451.22	809.60
451.59	800.36
451.96	791.30
452.33	779.27
452.70	768.53
453.07	755.64
453.43	742.71
453.80	729.96
454.17	717.55
454.54	706.10
454.91	693.97
455.28	681.92
455.65	670.83
456.02	659.64
456.38	650.34
456.75	638.71
457.12	629.20
457.49	619.58
457.86	610.58
458.23	602.54
458.59	593.94
458.96	585.24
459.33	577.42
459.70	569.52
460.07	563.22
460.43	555.96
460.80	549.13
461.17	543.07
461.54	537.00
461.91	531.09
462.27	525.09
462.64	519.87
463.01	514.32
463.38	508.93
463.74	503.66
464.11	498.87
464.48	494.61
464.85	490.07
465.21	486.61
465.58	482.80
465.95	478.44
466.32	474.78
466.68	471.07
467.05	467.35
467.42	463.76
467.78	459.93
468.15	456.22
468.52	453.50
468.88	450.10
469.25	447.07
469.62	444.65
469.98	442.02
470.35	439.55
470.72	437.28
471.08	434.73
471.45	432.52
471.82	430.25
472.18	427.79
472.55	426.18
472.92	424.08
473.28	422.51
473.65	420.77
474.02	419.14
474.38	417.72
474.75	416.53
475.11	415.23
475.48	414.31
475.85	413.64
476.21	412.83
476.58	412.17
476.94	411.53
477.31	410.90
477.67	410.33
478.04	409.88
478.41	409.57
478.77	409.54
479.14	409.33
479.50	409.46
479.87	409.74
480.23	409.93
480.60	410.19
480.96	410.37
481.33	411.04
481.69	411.62
482.06	412.17
482.42	412.59
482.79	413.25
483.15	414.21
483.52	415.32
483.88	416.45
484.25	417.58
484.61	418.85
484.98	420.08
485.34	421.69
485.71	423.39
486.07	425.13
486.44	426.65
486.80	428.56
487.17	430.55
487.53	432.76
487.90	434.97
488.26	437.36
488.62	439.90
488.99	442.27
489.35	444.78
489.72	447.60
490.08	450.71
490.44	453.75
490.81	456.83
491.17	459.86
491.54	463.33
491.90	466.80
492.26	470.49
492.63	474.32
492.99	477.94
493.36	481.81
493.72	485.94
494.08	490.28
494.45	494.59
494.81	499.03
495.17	503.49
495.54	508.23
495.90	513.22
496.26	517.99
496.63	523.00
496.99	528.28
497.35	533.67
497.72	539.11
498.08	544.56
498.44	550.11
498.80	556.04
499.17	561.69
499.53	567.50
499.89	573.43
500.26	579.38
500.62	585.53
500.98	591.80
501.34	598.01
501.71	604.45
502.07	610.85
502.43	617.23
502.79	623.74
503.16	630.26
503.52	636.56
503.88	643.20
504.24	649.80
504.60	656.12
504.97	662.60
505.33	668.99
505.69	675.80
506.05	682.36
506.41	688.84
506.78	695.34
507.14	701.89
507.50	708.31
507.86	714.74
508.22	721.10
508.59	727.08
508.95	733.26
509.31	739.32
509.67	745.46
510.03	751.39
510.39	757.08
510.75	762.61
511.12	768.26
511.48	773.66
511.84	779.07
512.20	784.44
512.56	789.50
512.92	794.53
513.28	799.40
513.64	804.01
514.00	808.37
514.37	812.62
514.73	816.87
515.09	820.88
515.45	824.77
515.81	828.41
516.17	832.04
516.53	835.12
516.89	838.41
517.25	841.40
517.61	844.40
517.97	847.33
518.33	849.76
518.69	851.89
519.05	854.06
519.41	855.91
519.77	857.84
520.13	859.69
520.49	861.36
520.85	862.81
521.21	864.27
521.57	865.56
521.93	866.44
522.29	867.12
522.65	867.68
523.01	868.14
523.37	868.38
523.73	868.84
524.09	869.16
524.45	868.87
524.81	868.62
525.17	868.38
525.53	868.03
525.89	867.71
526.25	867.60
526.61	867.13
526.97	866.76
527.33	866.10
527.68	865.72
528.04	865.00
528.40	863.85
528.76	862.91
529.12	862.10
529.48	861.41
529.84	860.38
530.20	859.47
530.56	858.49
530.91	857.70
531.27	856.85
531.63	856.01
531.99	855.28
532.35	854.27
532.71	853.16
533.07	852.22
533.42	851.50
533.78	850.51
534.14	849.66
534.50	848.60
534.86	848.01
535.21	846.64
535.57	845.62
535.93	844.70
536.29	843.95
536.65	843.21
537.00	842.54
537.36	841.96
537.72	841.34
538.08	840.86
538.44	840.29
538.79	839.60
539.15	838.95
539.51	838.68
539.87	838.63
540.22	838.17
540.58	838.00
540.94	837.60
541.29	837.20
541.65	836.66
542.01	836.60
542.37	836.18
542.72	836.05
543.08	835.78
543.44	835.90
543.79	835.48
544.15	835.31
544.51	835.24
544.87	835.09
545.22	834.99
545.58	834.98
545.94	834.93
546.29	834.79
546.65	834.49
547.01	834.04
547.36	833.80
547.72	833.89
548.07	833.64
548.43	833.62
548.79	833.66
549.14	833.91
549.50	834.14
549.86	834.24
550.21	834.57
550.57	835.26
550.92	835.51
551.28	836.07
551.64	836.34
551.99	836.58
552.35	837.04
552.70	837.54
553.06	837.95
553.41	838.31
553.77	839.04
554.13	840.04
554.48	840.95
554.84	841.73
555.19	842.69
555.55	843.97
555.90	844.86
556.26	846.05
556.61	847.00
556.97	847.68
557.32	848.77
557.68	849.89
558.03	851.00
558.39	852.09
558.74	853.27
559.10	854.39
559.45	855.75
559.81	857.39
560.16	858.69
560.52	859.94
560.87	861.74
561.23	863.29
561.58	865.14
561.94	866.88
562.29	868.31
562.64	870.10
563.00	871.52
563.35	873.05
563.71	874.49
564.06	876.09
564.42	877.52
564.77	878.74
565.12	880.03
565.48	881.75
565.83	883.45
566.19	885.44
566.54	887.31
566.89	888.72
567.25	890.10
567.60	891.66
567.96	893.32
568.31	894.53
568.66	895.71
569.02	896.60
569.37	897.37
569.72	898.41
570.08	899.12
570.43	899.86
570.78	900.89
571.14	901.60
571.49	902.34
571.84	903.54
572.20	904.75
572.55	905.97
572.90	906.26
573.26	906.84
573.61	907.10
573.96	907.23
574.31	907.54
574.67	907.70
575.02	907.70
575.37	907.72
575.72	907.93
576.08	908.03
576.43	908.10
576.78	908.14
577.13	908.57
577.49	908.71
577.84	909.31
578.19	909.43
578.54	909.60
578.90	909.79
579.25	909.61
579.60	909.11
579.95	908.39
580.30	908.28
580.66	908.25
581.01	908.06
581.36	907.94
581.71	907.91
582.06	907.75
582.42	907.54
582.77	907.04
583.12	906.62
583.47	906.35
583.82	905.89
584.17	905.28
584.53	904.47
584.88	903.87
585.23	902.79
585.58	902.05
585.93	900.97
586.28	899.96
586.63	898.88
586.98	898.13
587.34	897.58
587.69	896.23
588.04	894.73
588.39	893.22
588.74	891.57
589.09	890.25
589.44	888.64
589.79	887.44
590.14	886.36
590.49	884.72
590.84	883.07
591.19	881.81
591.54	880.28
591.89	878.36
592.25	876.58
592.60	874.31
592.95	872.13
593.30	870.24
593.65	868.42
594.00	866.50
594.35	865.48
594.70	863.46
595.05	861.94
595.40	860.08
595.75	858.07
596.10	856.39
596.45	854.10
596.80	852.00
597.15	849.68
597.50	847.30
597.85	845.40
598.19	843.39
598.54	840.78
598.89	838.60
599.24	836.82
599.59	834.69
599.94	833.08
600.29	831.17
600.64	829.23
600.99	827.01
601.34	825.00
601.69	821.81
602.04	819.45
602.39	816.84
602.74	814.67
603.08	812.49
603.43	810.37
603.78	808.33
604.13	806.52
604.48	804.52
604.83	802.58
605.18	800.62
605.53	798.67
605.87	797.00
606.22	795.89
606.57	794.66
606.92	793.58
607.27	792.50
607.62	791.71
607.96	790.67
608.31	789.60
608.66	788.25
609.01	786.95
609.36	785.48
609.70	783.84
610.05	782.12
610.40	780.38
610.75	778.45
611.10	776.62
611.44	774.30
611.79	772.23
612.14	769.95
612.49	767.14
612.83	764.28
613.18	761.44
613.53	757.88
613.88	754.12
614.22	750.29
614.57	746.16
614.92	741.80
615.27	737.87
615.61	733.89
615.96	730.22
616.31	726.57
616.65	723.15
617.00	719.81
617.35	716.52
617.70	713.24
618.04	710.06
618.39	706.81
618.74	703.93
619.08	700.64
619.43	697.56
619.78	694.62
620.12	691.78
620.47	688.96
620.82	686.08
621.16	683.28
621.51	680.57
621.85	677.90
622.20	675.32
622.55	672.56
622.89	670.01
623.24	667.52
623.59	664.97
623.93	662.23
624.28	659.54
624.62	656.70
624.97	654.06
625.32	651.07
625.66	648.23
626.01	645.37
626.35	642.96
626.70	640.40
627.04	638.09
627.39	635.56
627.73	633.00
628.08	630.44
628.43	627.76
628.77	624.97
629.12	622.34
629.46	619.85
629.81	617.24
630.15	614.54
630.50	611.67
630.84	608.88
631.19	606.10
631.53	603.49
631.88	600.87
632.22	598.19
632.57	595.85
632.91	593.32
633.26	590.68
633.60	587.78
633.95	584.98
634.29	582.00
634.64	579.21
634.98	576.34
635.32	573.68
635.67	571.19
636.01	568.64
636.36	566.04
636.70	563.50
637.05	560.91
637.39	558.40
637.73	555.91
638.08	553.47
638.42	551.13
638.77	548.75
639.11	546.38
639.45	544.05
639.80	541.59
640.14	539.15
640.49	536.73
640.83	534.36
641.17	532.14
641.52	529.96
641.86	527.75
642.20	525.83
642.55	523.80
642.89	521.67
643.23	519.66
643.58	517.77
643.92	515.55
644.26	513.50
644.61	511.37
644.95	509.27
645.29	507.13
645.64	504.97
645.98	502.99
646.32	501.04
646.66	498.68
647.01	496.57
647.35	494.69
647.69	492.78
648.04	491.03
648.38	489.05
648.72	487.03
649.06	484.97
649.41	482.79
649.75	480.69
650.09	478.82
650.43	476.81
650.78	474.62
651.12	472.54
651.46	470.67
651.80	468.82
652.14	467.13
652.49	465.26
652.83	463.35
653.17	461.10
653.51	458.90
653.85	457.12
654.20	455.16
654.54	453.07
654.88	451.16
655.22	449.19
655.56	447.23
655.90	445.39
656.25	443.60
656.59	441.83
656.93	439.95
657.27	438.07
657.61	436.05
657.95	434.39
658.29	432.61
658.64	430.76
658.98	428.92
659.32	426.80
659.66	425.07
660.00	423.17
660.34	421.59
660.68	419.79
661.02	417.98
661.36	416.32
661.70	414.74
662.05	413.11
662.39	411.45
662.73	409.87
663.07	408.33
663.41	406.71
663.75	404.99
664.09	403.42
664.43	401.78
664.77	400.29
665.11	398.63
665.45	397.07
665.79	395.60
666.13	394.00
666.47	392.62
666.81	391.00
667.15	389.53
667.49	388.07
667.83	386.79
668.17	385.33
668.51	383.86
668.85	382.40
669.19	381.06
669.53	379.57
669.87	378.06
670.21	376.62
670.55	375.24
670.89	374.10
671.23	372.97
671.57	371.71
671.91	370.50
672.25	369.32
672.58	368.18
672.92	366.79
673.26	365.56
673.60	364.37
673.94	363.23
674.28	362.17
674.62	361.04
674.96	359.78
675.30	358.71
675.64	357.57
675.97	356.45
676.31	355.12
676.65	354.01
676.99	353.02
677.33	351.91
677.67	350.87
678.01	349.65
678.34	348.55
678.68	347.50
679.02	346.36
679.36	345.27
679.70	344.18
680.04	343.17
680.37	342.13
680.71	340.99
681.05	339.99
681.39	338.92
681.73	337.89
682.06	337.05
682.40	336.12
682.74	335.27
683.08	334.41
683.42	333.55
683.75	332.69
684.09	331.75
684.43	330.87
684.77	329.84
685.10	328.87
685.44	327.92
685.78	326.93
686.12	326.03
686.45	325.09
686.79	324.23
687.13	323.50
687.46	322.69
687.80	321.97
688.14	321.09
688.48	320.31
688.81	319.47
689.15	318.60
689.49	317.79
689.82	316.89
690.16	316.05
690.50	315.23
690.83	314.44
691.17	313.65
691.51	312.87
691.84	312.19
692.18	311.45
692.52	310.62
692.85	309.95
693.19	309.33
693.52	308.62
693.86	307.90
694.20	307.08
694.53	306.34
694.87	305.61
695.21	304.89
695.54	304.11
695.88	303.33
696.21	302.55
696.55	301.80
696.88	301.10
697.22	300.39
697.56	299.78
697.89	299.14
698.23	298.51
698.56	297.82
698.90	297.19
699.23	296.63
699.57	296.09
699.90	295.47
700.24	294.85
700.58	294.36
700.91	293.81
701.25	293.43
701.58	293.00
701.92	292.56
702.25	292.18
702.59	291.73
702.92	291.42
703.26	291.03
703.59	290.63
703.93	290.44
704.26	289.95
704.60	289.59
704.93	289.05
705.26	288.57
705.60	288.10
705.93	287.68
706.27	287.23
706.60	286.87
706.94	286.47
707.27	286.01
707.61	285.55
707.94	285.16
708.27	284.57
708.61	284.07
708.94	283.55
709.28	283.02
709.61	282.51
709.94	281.96
710.28	281.39
710.61	280.84
710.95	280.03
711.28	279.64
711.61	278.99
711.95	278.47
712.28	277.90
712.61	277.41
712.95	276.94
713.28	276.54
713.61	275.95
713.95	275.40
714.28	274.86
714.61	274.28
714.95	273.75
715.28	273.24
715.61	272.70
715.95	272.25
716.28	271.75
716.61	271.35
716.95	270.93
717.28	270.55
717.61	270.24
717.94	269.90
718.28	269.40
718.61	269.10
718.94	268.80
719.27	268.53
719.61	268.20
719.94	267.85
720.27	267.40
720.60	267.00
720.94	266.65
721.27	266.44
721.60	266.17
721.93	265.82
722.27	265.56
722.60	265.29
722.93	264.91
723.26	264.65
723.59	264.37
723.93	264.09
724.26	263.80
724.59	263.46
724.92	263.25
725.25	263.06
725.59	262.77
725.92	262.52
726.25	262.22
726.58	261.98
726.91	261.61
727.24	261.34
727.57	261.15
727.91	260.89
728.24	260.65
728.57	260.38
728.90	260.18
729.23	259.92
729.56	259.81
729.89	259.64
730.22	259.45
730.55	259.25
730.89	258.98
731.22	258.78
731.55	258.53
731.88	258.26
732.21	258.04
732.54	257.85
732.87	257.64
733.20	257.45
733.53	257.27
733.86	257.10
734.19	256.86
734.52	256.70
734.85	256.65
735.18	256.38
735.51	256.25
735.84	256.08
736.17	255.95
736.50	255.61
736.83	255.60
737.16	255.38
737.49	255.22
737.82	255.02
738.15	254.86
738.48	254.71
738.81	254.60
739.14	254.40
739.47	254.17
739.80	253.98
740.13	253.75
740.46	253.52
740.79	253.39
741.12	253.25
741.45	253.05
741.78	252.78
742.11	252.63
742.44	252.47
742.77	252.37
743.10	252.16
743.43	251.99
743.75	251.62
744.08	251.68
744.41	251.46
744.74	251.31
745.07	251.07
745.40	250.97
745.73	250.88
746.06	250.71
746.39	250.59
746.71	250.45
747.04	250.32
747.37	250.20
747.70	250.05
748.03	249.87
748.36	249.79
748.68	249.60
749.01	249.40
749.34	249.20
749.67	249.04
750.00	248.96
750.33	248.98
750.65	248.90
750.98	248.61
751.31	248.49
751.64	248.41
751.97	248.48
752.29	248.36
752.62	248.11
752.95	247.96
753.28	247.83
753.60	247.69
753.93	247.60
754.26	247.43
754.59	247.29
754.91	247.20
755.24	247.01
755.57	246.90
755.90	246.83
756.22	246.69
756.55	246.54
756.88	246.33
757.20	246.13
757.53	245.94
757.86	245.84
758.19	245.74
758.51	245.60
758.84	245.36
759.17	245.18
759.49	245.09
759.82	245.07
760.15	244.95
760.47	244.85
760.80	244.71
761.13	244.69
761.45	244.58
761.78	244.48
762.11	244.37
762.43	244.27
762.76	244.19
763.08	244.13
763.41	244.09
763.74	244.09
764.06	243.99
764.39	243.95
764.71	243.80
765.04	243.70
765.37	243.62
765.69	243.53
766.02	243.48
766.34	243.42
766.67	243.26
767.00	243.28
767.32	243.33
767.65	243.41
767.97	243.37
768.30	243.27
768.62	243.18
768.95	243.12
769.27	243.02
769.60	242.97
769.92	242.91
770.25	242.76
770.57	242.60
770.90	242.56
771.22	242.41
771.55	242.36
771.87	242.29
772.20	242.21
772.52	242.35
772.85	242.54
773.17	242.42
773.50	242.37
773.82	242.22
774.15	242.03
774.47	241.75
774.80	241.66
775.12	241.62
775.45	241.57
775.77	241.53
776.09	241.48
776.42	241.44
776.74	241.45
777.07	241.35
777.39	241.35
777.72	241.30
778.04	241.27
778.36	241.23
778.69	241.17
779.01	241.11
779.33	240.85
779.66	240.57
779.98	240.56
780.31	240.50
780.63	240.53
780.95	240.53
781.28	240.54
781.60	240.47
781.92	240.40
782.25	240.36
782.57	240.37
782.89	240.37
783.22	240.26
783.54	240.17
783.86	240.21
784.19	240.13
784.51	240.10
784.83	240.08
785.16	240.02
785.48	240.02
785.80	239.99
786.12	239.98
786.45	239.91
786.77	239.86
787.09	239.80
787.42	239.68
787.74	239.61
788.06	239.57
788.38	239.51
788.71	239.45
789.03	239.44
789.35	239.42
789.67	239.38
789.99	239.41
790.32	239.35
790.64	239.31
790.96	239.47
791.28	239.34
791.61	239.26
791.93	239.24
792.25	239.18
792.57	239.37
792.89	239.31
793.21	239.33
793.54	239.34
793.86	239.32
794.18	239.28
794.50	239.28
794.82	239.29
795.14	239.32
795.47	239.38
795.79	239.39
796.11	239.29
796.43	239.20
796.75	239.23
797.07	239.26
797.39	239.22
797.71	239.03
798.04	239.08
798.36	239.11
798.68	239.08
799.00	239.08
799.32	238.85
799.64	238.84
799.96	238.83
800.28	238.75
800.60	238.72
800.92	238.70
801.24	238.65
801.56	238.63
801.89	238.51
802.21	238.56
802.53	238.50
802.85	238.50
803.17	238.64
803.49	238.48
803.81	238.38
804.13	238.29
804.45	238.30
804.77	238.27
805.09	238.22
805.41	238.18
805.73	238.16
806.05	238.12
806.37	238.10
806.69	238.05
807.01	238.10
807.33	238.17
807.65	238.18
807.97	238.26
808.28	238.26
808.60	238.29
808.92	238.23
809.24	238.34
809.56	238.32
809.88	238.21
810.20	238.25
810.52	238.28
810.84	238.31
811.16	238.24
811.48	238.22
811.80	238.26
812.12	238.22
812.43	238.23
812.75	238.22
813.07	238.17
813.39	238.19
813.71	238.14
814.03	238.03
814.35	238.00
814.67	237.87
814.98	237.82
815.30	237.79
815.62	237.71
815.94	237.55
816.26	237.55
816.58	237.56
816.89	237.56
817.21	237.52
817.53	237.48
817.85	237.44
818.17	237.49
818.48	237.38
818.80	237.43
819.12	237.41
819.44	237.38
819.76	237.33
820.07	237.32
820.39	237.29
820.71	237.30
821.03	237.32
821.34	237.32
821.66	237.23
821.98	237.25
822.30	237.26
822.61	237.41
822.93	237.38
823.25	237.32
823.57	237.27
823.88	237.28
824.20	237.32
824.52	237.38
824.83	237.29
825.15	237.34
825.47	237.37
825.79	237.40
826.10	237.43
826.42	237.47
826.74	237.48
827.05	237.44
827.37	237.43
827.69	237.39
828.00	237.39
828.32	237.47
828.64	237.44
828.95	237.52
829.27	237.40
829.58	237.36
829.90	237.42
830.22	237.43
830.53	237.42
830.85	237.33
831.17	237.31
831.48	237.31
831.80	237.27
832.11	237.25
832.43	237.14
832.75	237.10
833.06	237.16
833.38	237.10
833.69	237.15
834.01	237.18
834.32	237.15
834.64	237.16
834.96	237.15
835.27	237.13
835.59	237.07
835.90	237.03
836.22	237.04
836.53	236.98
836.85	236.97
837.16	237.15
837.48	237.23
837.79	237.28
838.11	237.32
838.42	237.31
838.74	237.27
839.05	237.33
839.37	237.31
839.68	237.27
840.00	237.23
840.31	237.17
840.63	237.16
840.94	237.11
841.26	237.04
841.57	237.01
841.88	237.04
842.20	237.02
842.51	237.01
842.83	237.06
843.14	237.33
843.46	237.37
843.77	237.22
844.08	237.21
844.40	237.11
844.71	237.09
845.03	237.13
845.34	237.10
845.65	237.03
845.97	237.04
846.28	237.05
846.60	237.08
846.91	237.06
847.22	237.04
847.54	237.16
847.85	237.20
848.16	237.26
848.48	237.22
848.79	237.27
849.10	237.29
849.42	237.26
849.73	236.97
850.04	236.97
850.36	236.90
850.67	236.95
850.98	236.96
851.30	236.96
851.61	236.96
851.92	237.03
852.23	237.13
852.55	237.15
852.86	237.12
853.17	237.08
853.49	237.23
853.80	237.29
854.11	237.31
854.42	237.33
854.74	237.29
855.05	237.33
855.36	237.21
855.67	237.23
855.99	237.30
856.30	237.55
856.61	237.53
856.92	237.58
857.23	237.55
857.55	237.56
857.86	237.56
858.17	237.58
858.48	237.50
858.79	237.45
859.11	237.48
859.42	237.42
859.73	237.44
860.04	237.31
860.35	237.20
860.66	237.09
860.98	237.11
861.29	237.13
861.60	237.04
861.91	237.10
862.22	237.01
862.53	236.89
862.84	236.60
863.16	236.64
863.47	236.59
863.78	236.54
864.09	236.58
864.40	236.52
864.71	236.48
865.02	236.56
865.33	236.52
865.64	236.46
865.95	236.51
866.27	236.61
866.58	236.65
866.89	236.65
867.20	236.64
867.51	236.57
867.82	236.58
868.13	236.68
868.44	236.64
868.75	236.70
869.06	236.73
869.37	236.76
869.68	236.71
869.99	236.73
870.30	236.70
870.61	236.66
870.92	236.67
871.23	236.63
871.54	236.64
871.85	236.70
872.16	236.69
872.47	236.65
872.78	236.52
873.09	236.53
873.40	236.51
873.71	236.52
874.02	236.56
874.33	236.54
874.64	236.47
874.95	236.52
875.26	236.50
875.56	236.51
875.87	236.52
876.18	236.45
876.49	236.68
876.80	236.68
877.11	236.67
877.42	236.67
877.73	236.64
878.04	236.62
878.35	236.60
878.66	236.62
878.96	236.58
879.27	236.54
879.58	236.51
879.89	236.52
880.20	236.58
880.51	236.57
880.82	236.55
881.12	236.60
881.43	236.57
881.74	236.52
882.05	236.57
882.36	236.58
882.67	236.66
882.97	236.41
883.28	236.45
883.59	236.49
883.90	236.58
884.21	236.69
884.51	236.62
884.82	236.58
885.13	236.64
885.44	236.69
885.74	236.75
886.05	236.79
886.36	236.82
886.67	236.82
886.98	236.93
887.28	236.98
887.59	236.96
887.90	236.96
888.20	236.98
888.51	237.05
888.82	237.03
889.13	237.03
889.43	237.18
889.74	237.16
890.05	237.11
890.35	237.04
890.66	236.99
890.97	237.05
891.28	237.01
891.58	236.98
891.89	236.99
892.20	236.95
892.50	236.92
892.81	236.94
893.12	236.82
893.42	236.69
893.73	236.69
894.04	236.66
894.34	236.66
894.65	236.67
894.95	236.52
895.26	236.51
895.57	236.60
895.87	236.44
896.18	236.45
896.48	236.48
896.79	236.47
897.10	236.51
897.40	236.52
897.71	236.59
898.01	236.53
898.32	236.50
898.63	236.52
898.93	236.47
899.24	236.40
899.54	236.41
899.85	236.34
900.15	236.27
900.46	236.30
900.76	236.34
901.07	236.29
901.38	236.30
901.68	236.32
901.99	236.24
902.29	236.23
902.60	236.21
902.90	236.20
903.21	236.16
903.51	236.07
903.82	236.09
904.12	236.03
904.43	236.02
904.73	236.06
905.03	236.08
905.34	236.32
905.64	236.35
905.95	236.39
906.25	236.40
906.56	236.34
906.86	236.33
907.17	236.28
907.47	236.29
907.77	236.30
908.08	236.16
908.38	236.15
908.69	236.11
908.99	236.15
909.30	236.08
909.60	236.08
909.90	236.11
910.21	236.06
910.51	236.07
910.81	236.13
911.12	236.16
911.42	236.15
911.73	235.93
912.03	235.91
912.33	235.93
912.64	235.96
912.94	235.96
913.24	235.96
913.55	235.95
913.85	235.97
914.15	236.00
914.46	236.16
914.76	236.13
915.06	236.14
915.37	236.13
915.67	236.14
915.97	236.15
916.27	236.09
916.58	236.05
916.88	236.04
917.18	236.01
917.49	236.12
917.79	236.11
918.09	236.16
918.39	236.24
918.70	236.20
919.00	236.26
919.30	236.43
919.60	236.43
919.91	236.46
920.21	236.47
920.51	236.45
920.81	236.35
921.12	236.43
921.42	236.42
921.72	236.46
922.02	236.48
922.32	236.57
922.63	236.68
922.93	236.85
923.23	236.92
923.53	236.91
923.83	236.81
924.13	236.82
924.44	236.84
924.74	236.87
925.04	236.98
925.34	236.93
925.64	236.87
925.94	236.88
926.24	236.98
926.55	236.93
926.85	237.01
927.15	237.10
927.45	237.09
927.75	237.15
928.05	237.17
928.35	237.21
928.65	237.17
928.95	237.11
929.26	237.01
929.56	237.02
929.86	237.07
930.16	237.00
930.46	237.01
930.76	236.99
931.06	236.89
931.36	236.79
931.66	236.83
931.96	236.80
932.26	236.80
932.56	236.72
932.86	236.80
933.16	236.78
933.46	236.75
933.76	236.70
934.06	236.73
934.36	236.76
934.66	236.72
934.96	236.76
935.26	236.83
935.56	236.91
935.86	236.89
936.16	236.80
936.46	236.79
936.76	236.81
937.06	236.76
937.36	236.79
937.66	236.84
937.96	236.81
938.26	236.77
938.56	236.76
938.86	236.73
939.16	236.68
939.46	236.66
939.76	236.63
940.06	236.63
940.35	236.51
940.65	236.34
940.95	236.39
941.25	236.28
941.55	236.21
941.85	236.10
942.15	236.11
942.45	236.16
942.75	236.18
943.04	236.12
943.34	236.16
943.64	236.11
943.94	236.08
944.24	236.13
944.54	236.14
944.84	236.12
945.13	236.11
945.43	236.16
945.73	236.17
946.03	236.17
946.33	236.13
946.62	236.14
946.92	236.23
947.22	236.24
947.52	236.26
947.82	236.35
948.11	236.37
948.41	236.33
948.71	236.36
949.01	236.39
949.31	236.45
949.60	236.44
949.90	236.51
950.20	236.50
950.50	236.48
950.79	236.46
951.09	236.50
951.39	236.51
951.69	236.45
951.98	236.45
952.28	236.41
952.58	236.47
952.87	236.48
953.17	236.49
953.47	236.43
953.76	236.45
954.06	236.37
954.36	236.34
954.66	236.34
954.95	236.40
955.25	236.36
955.55	236.36
955.84	236.33
956.14	236.36
956.44	236.35
956.73	236.33
957.03	236.36
957.32	236.40
957.62	236.40
957.92	236.48
958.21	236.45
958.51	236.75
958.81	236.80
959.10	236.83
959.40	236.83
959.69	236.87
959.99	236.96
960.29	236.95
960.58	236.92
960.88	236.96
961.17	236.88
961.47	236.95
961.76	236.86
962.06	236.92
962.36	236.85
962.65	236.86
962.95	236.84
963.24	236.80
963.54	236.72
963.83	236.72
964.13	236.64
964.42	236.65
964.72	236.47
965.01	236.43
965.31	236.41
965.60	236.31
965.90	236.41
966.19	236.31
966.49	236.28
966.78	236.21
967.08	236.17
967.37	236.16
967.67	236.06
967.96	236.16
968.26	236.12
968.55	236.18
968.85	236.18
969.14	236.22
969.43	236.25
969.73	236.25
970.02	236.25
970.32	236.19
970.61	236.13
970.91	236.03
971.20	235.94
971.49	235.91
971.79	235.97
972.08	235.85
972.38	235.90
972.67	235.89
972.96	236.03
973.26	236.01
973.55	236.09
973.85	236.09
974.14	236.03
974.43	236.06
974.73	235.94
975.02	235.91
975.31	235.82
975.61	235.78
975.90	235.76
976.19	235.73
976.49	235.83
976.78	235.85
977.07	235.90
977.37	235.93
977.66	235.99
977.95	235.98
978.24	236.01
978.54	236.04
978.83	236.07
979.12	235.98
979.42	236.01
979.71	236.00
980.00	236.04
980.29	236.03
980.59	236.01
980.88	236.07
981.17	236.07
981.46	236.12
981.76	236.15
982.05	236.24
982.34	236.24
982.63	236.17
982.93	236.26
983.22	236.29
983.51	236.34
983.80	236.38
984.09	236.40
984.39	236.41
984.68	236.38
984.97	236.36
985.26	236.34
985.55	236.35
985.85	236.24
986.14	236.22
986.43	236.28
986.72	236.24
987.01	236.18
987.30	236.21
987.59	236.19
987.89	236.16
988.18	236.10
988.47	236.10
988.76	236.11
989.05	235.99
989.34	235.94
989.63	236.02
989.92	235.96
990.22	235.95
990.51	235.90
990.80	235.88
991.09	235.96
991.38	236.01
991.67	236.01
991.96	236.07
992.25	236.10
992.54	236.03
992.83	236.03
993.12	236.02
993.41	236.08
993.70	236.22
993.99	236.30
994.28	236.29
994.58	236.29
994.87	236.33
995.16	236.34
995.45	236.38
995.74	236.25
996.03	236.27
996.32	236.30
996.61	236.30
996.90	236.24
997.19	236.19
997.48	236.17
997.77	236.12
998.06	236.10
998.34	236.13
998.63	236.10
998.92	236.17
999.21	236.19
999.50	236.17
999.79	236.05
1000.08	236.02
1000.37	236.06
1000.66	236.07
1000.95	236.14
1001.24	236.18
1001.53	236.18
1001.82	236.17
1002.11	236.04
1002.40	236.04
1002.68	236.09
1002.97	236.32
1003.26	236.33
1003.55	236.32
1003.84	236.35
1004.13	236.43
1004.42	236.43
1004.71	236.47
1004.99	236.39
1005.28	236.50
1005.57	236.48
1005.86	236.44
1006.15	236.41
1006.44	236.40
1006.72	236.40
1007.01	236.31
1007.30	236.28
1007.59	236.23
1007.88	236.25
1008.17	236.37
1008.45	236.35
1008.74	236.26
1009.03	236.14
1009.32	236.11
1009.60	236.16
1009.89	236.16
1010.18	236.09
1010.47	236.06
1010.76	236.05
1011.04	236.06
1011.33	236.01
1011.62	236.01
1011.91	236.03
1012.19	236.11
1012.48	236.06
1012.77	236.04
1013.05	236.15
1013.34	236.15
1013.63	236.17
1013.92	236.22
1014.20	236.21
1014.49	236.25
1014.78	236.27
1015.06	236.21
1015.35	236.19
1015.64	236.21
1015.92	236.26
1016.21	236.29
1016.50	236.27
1016.78	236.26
1017.07	236.32
1017.36	236.33
1017.64	236.32
1017.93	236.35
1018.22	236.25
1018.50	236.25
1018.79	236.28
1019.08	236.20
1019.36	236.17
1019.65	236.16
1019.93	236.22
1020.22	236.22
1020.51	236.32
1020.79	236.30
1021.08	234.93
1021.36	235.73
1021.65	236.23
1021.94	236.63
1022.22	235.23
1022.51	235.77
1022.79	238.20
1023.08	236.17
1023.36	239.10
1023.65	234.97
>>>>>End Processed Spectral Data<<<<<
