SpectraSuite Data File
++++++++++++++++++++++++++++++++++++
Date: Mon Oct 22 15:13:26 EDT 2012
User: group
Dark Spectrum Present: No
Reference Spectrum Present: No
Number of Sampled Component Spectra: 1
Spectrometers: USB2E7196
Integration Time (usec): 91000 (USB2E7196)
Spectra Averaged: 30 (USB2E7196)
Boxcar Smoothing: 10 (USB2E7196)
Correct for Electrical Dark: No (USB2E7196)
Strobe/Lamp Enabled: No (USB2E7196)
Correct for Detector Non-linearity: No (USB2E7196)
Correct for Stray Light: No (USB2E7196)
Number of Pixels in Processed Spectrum: 2048
>>>>>Begin Processed Spectral Data<<<<<
339.09	0.00
339.48	223.77
339.86	225.20
340.24	228.23
340.63	228.07
341.01	233.17
341.39	231.27
341.78	233.67
342.16	234.43
342.54	234.90
342.93	222.67
343.31	233.96
343.69	234.55
344.07	235.02
344.46	235.51
344.84	235.99
345.22	236.24
345.60	236.51
345.99	236.69
346.37	236.81
346.75	236.93
347.13	236.98
347.52	237.12
347.90	237.24
348.28	237.25
348.66	237.34
349.05	237.27
349.43	237.33
349.81	237.44
350.19	237.46
350.57	237.53
350.96	237.61
351.34	237.66
351.72	237.77
352.10	237.95
352.48	237.95
352.87	237.94
353.25	237.93
353.63	238.01
354.01	238.07
354.39	238.10
354.77	238.16
355.15	238.34
355.54	238.33
355.92	238.31
356.30	238.42
356.68	238.60
357.06	238.62
357.44	238.67
357.82	238.70
358.20	238.82
358.58	238.81
358.97	238.80
359.35	238.85
359.73	238.88
360.11	238.84
360.49	238.84
360.87	238.88
361.25	238.93
361.63	238.96
362.01	238.97
362.39	239.05
362.77	239.03
363.15	238.94
363.53	238.96
363.91	238.95
364.29	238.91
364.67	238.69
365.05	238.72
365.43	238.71
365.81	238.69
366.19	238.74
366.57	238.92
366.95	238.88
367.33	238.87
367.71	238.81
368.09	238.85
368.47	238.88
368.85	238.81
369.23	238.84
369.61	238.81
369.99	238.86
370.37	238.79
370.75	238.87
371.13	238.83
371.51	238.76
371.89	238.79
372.27	238.71
372.65	238.75
373.03	238.68
373.41	238.64
373.78	238.62
374.16	238.47
374.54	238.31
374.92	238.29
375.30	238.23
375.68	238.21
376.06	238.17
376.44	238.05
376.82	238.02
377.19	237.94
377.57	237.84
377.95	237.69
378.33	237.71
378.71	237.54
379.09	237.49
379.47	237.53
379.84	237.43
380.22	237.42
380.60	237.31
380.98	237.26
381.36	237.20
381.73	237.11
382.11	237.15
382.49	237.13
382.87	237.07
383.25	237.04
383.62	237.21
384.00	237.09
384.38	237.15
384.76	237.22
385.13	237.32
385.51	237.30
385.89	237.23
386.27	237.20
386.64	237.23
387.02	237.29
387.40	237.20
387.78	237.23
388.15	237.20
388.53	237.18
388.91	237.20
389.29	237.22
389.66	237.25
390.04	237.16
390.42	237.18
390.79	237.19
391.17	237.17
391.55	236.93
391.92	236.98
392.30	237.00
392.68	236.96
393.05	236.88
393.43	236.90
393.81	237.00
394.18	236.94
394.56	236.94
394.94	236.93
395.31	236.99
395.69	237.10
396.06	237.19
396.44	237.23
396.82	237.28
397.19	237.42
397.57	237.47
397.95	237.63
398.32	237.61
398.70	237.69
399.07	237.86
399.45	237.96
399.82	238.07
400.20	238.11
400.58	238.22
400.95	238.26
401.33	238.39
401.70	238.68
402.08	238.85
402.45	239.03
402.83	239.27
403.20	239.43
403.58	239.58
403.95	239.86
404.33	240.06
404.71	240.29
405.08	240.58
405.46	240.86
405.83	241.07
406.21	241.38
406.58	241.79
406.96	242.12
407.33	242.53
407.70	242.97
408.08	243.60
408.45	244.12
408.83	244.71
409.20	245.35
409.58	245.78
409.95	246.46
410.33	247.24
410.70	247.92
411.08	248.82
411.45	249.73
411.82	250.57
412.20	251.72
412.57	252.99
412.95	254.04
413.32	255.33
413.69	256.69
414.07	258.17
414.44	259.68
414.82	261.33
415.19	263.15
415.56	265.13
415.94	267.07
416.31	269.37
416.68	271.63
417.06	274.08
417.43	276.56
417.81	279.44
418.18	282.26
418.55	285.43
418.93	288.70
419.30	292.14
419.67	295.77
420.04	299.56
420.42	303.63
420.79	308.15
421.16	312.76
421.54	317.47
421.91	322.38
422.28	327.59
422.66	333.06
423.03	338.53
423.40	344.12
423.77	350.19
424.15	356.30
424.52	362.76
424.89	369.82
425.26	376.73
425.64	383.25
426.01	390.48
426.38	398.06
426.75	405.74
427.13	413.78
427.50	422.16
427.87	430.88
428.24	439.73
428.61	448.30
428.99	457.55
429.36	467.88
429.73	477.99
430.10	487.97
430.47	498.45
430.85	509.23
431.22	520.76
431.59	532.80
431.96	544.49
432.33	557.58
432.70	570.28
433.08	585.12
433.45	599.23
433.82	613.13
434.19	628.77
434.56	643.82
434.93	658.57
435.30	673.55
435.68	689.88
436.05	705.94
436.42	722.10
436.79	737.12
437.16	753.21
437.53	770.00
437.90	786.88
438.27	803.49
438.64	820.62
439.01	836.58
439.38	851.11
439.75	865.03
440.13	880.73
440.50	895.64
440.87	908.03
441.24	920.54
441.61	934.60
441.98	944.93
442.35	957.55
442.72	969.71
443.09	981.27
443.46	988.66
443.83	993.75
444.20	998.23
444.57	1004.47
444.94	1007.40
445.31	1010.71
445.68	1013.16
446.05	1014.39
446.42	1013.37
446.79	1011.74
447.16	1009.76
447.53	1008.41
447.90	1002.62
448.27	996.58
448.64	987.97
449.01	982.04
449.37	971.32
449.74	960.95
450.11	948.05
450.48	934.57
450.85	920.81
451.22	909.13
451.59	898.01
451.96	887.32
452.33	873.08
452.70	860.37
453.07	845.09
453.43	829.93
453.80	815.03
454.17	800.63
454.54	787.10
454.91	772.87
455.28	758.75
455.65	745.65
456.02	732.45
456.38	721.67
456.75	707.92
457.12	696.58
457.49	685.37
457.86	674.72
458.23	665.33
458.59	655.11
458.96	644.71
459.33	635.53
459.70	626.29
460.07	618.84
460.43	610.28
460.80	602.15
461.17	595.06
461.54	587.79
461.91	580.76
462.27	573.70
462.64	567.57
463.01	560.95
463.38	554.46
463.74	548.31
464.11	542.65
464.48	537.76
464.85	532.45
465.21	528.45
465.58	524.07
465.95	518.83
466.32	514.54
466.68	510.29
467.05	506.02
467.42	501.90
467.78	497.54
468.15	493.30
468.52	490.31
468.88	486.45
469.25	482.84
469.62	479.93
469.98	476.76
470.35	473.77
470.72	470.99
471.08	468.05
471.45	465.42
471.82	462.72
472.18	459.89
472.55	457.97
472.92	455.56
473.28	453.49
473.65	451.50
474.02	449.49
474.38	447.68
474.75	446.21
475.11	444.55
475.48	443.31
475.85	442.47
476.21	441.46
476.58	440.60
476.94	439.96
477.31	439.23
477.67	438.59
478.04	438.18
478.41	438.01
478.77	437.99
479.14	437.76
479.50	437.88
479.87	438.19
480.23	438.36
480.60	438.47
480.96	438.75
481.33	439.44
481.69	440.17
482.06	440.77
482.42	441.23
482.79	442.00
483.15	443.04
483.52	444.32
483.88	445.49
484.25	446.82
484.61	448.23
484.98	449.68
485.34	451.40
485.71	453.24
486.07	455.17
486.44	456.92
486.80	459.16
487.17	461.51
487.53	463.95
487.90	466.47
488.26	469.30
488.62	472.20
488.99	475.05
489.35	477.86
489.72	481.09
490.08	484.60
490.44	488.18
490.81	491.83
491.17	495.53
491.54	499.53
491.90	503.56
492.26	507.79
492.63	512.25
492.99	516.72
493.36	521.31
493.72	526.18
494.08	531.16
494.45	536.17
494.81	541.35
495.17	546.70
495.54	552.38
495.90	558.25
496.26	564.04
496.63	570.08
496.99	576.51
497.35	583.14
497.72	589.79
498.08	596.21
498.44	602.90
498.80	609.71
499.17	616.70
499.53	623.85
499.89	631.17
500.26	638.34
500.62	645.74
500.98	653.53
501.34	661.28
501.71	669.24
502.07	677.27
502.43	685.32
502.79	693.50
503.16	701.77
503.52	709.91
503.88	718.28
504.24	726.44
504.60	734.57
504.97	742.59
505.33	750.86
505.69	759.74
506.05	768.34
506.41	777.10
506.78	785.55
507.14	793.99
507.50	802.56
507.86	811.38
508.22	820.08
508.59	828.25
508.95	836.72
509.31	845.14
509.67	853.58
510.03	861.62
510.39	869.77
510.75	877.79
511.12	885.71
511.48	893.60
511.84	901.69
512.20	909.42
512.56	917.33
512.92	925.11
513.28	932.66
513.64	939.94
514.00	946.93
514.37	953.92
514.73	960.83
515.09	967.46
515.45	974.01
515.81	980.48
516.17	986.93
516.53	992.97
516.89	999.31
517.25	1005.29
517.61	1011.37
517.97	1017.22
518.33	1022.48
518.69	1027.73
519.05	1033.12
519.41	1038.07
519.77	1043.34
520.13	1048.11
520.49	1052.78
520.85	1057.17
521.21	1061.70
521.57	1066.23
521.93	1070.10
522.29	1074.07
522.65	1077.88
523.01	1081.53
523.37	1084.92
523.73	1088.45
524.09	1091.63
524.45	1094.27
524.81	1097.23
525.17	1100.04
525.53	1102.71
525.89	1105.65
526.25	1108.54
526.61	1110.75
526.97	1113.21
527.33	1115.83
527.68	1118.76
528.04	1120.92
528.40	1122.93
528.76	1125.19
529.12	1127.25
529.48	1129.98
529.84	1132.00
530.20	1134.16
530.56	1135.87
530.91	1137.97
531.27	1139.99
531.63	1142.44
531.99	1144.67
532.35	1146.30
532.71	1148.04
533.07	1149.91
533.42	1151.73
533.78	1153.44
534.14	1155.59
534.50	1157.27
534.86	1158.99
535.21	1159.99
535.57	1161.50
535.93	1162.88
536.29	1164.16
536.65	1165.74
537.00	1166.96
537.36	1168.51
537.72	1169.85
538.08	1171.76
538.44	1172.93
538.79	1173.88
539.15	1174.35
539.51	1175.50
539.87	1176.95
540.22	1177.75
540.58	1178.65
540.94	1179.40
541.29	1180.08
541.65	1180.38
542.01	1181.23
542.37	1181.68
542.72	1182.29
543.08	1182.72
543.44	1183.73
543.79	1184.22
544.15	1184.52
544.51	1185.24
544.87	1185.70
545.22	1186.13
545.58	1186.42
545.94	1186.88
546.29	1187.01
546.65	1187.04
547.01	1186.98
547.36	1186.93
547.72	1187.33
548.07	1187.42
548.43	1187.50
548.79	1187.62
549.14	1187.74
549.50	1188.11
549.86	1188.09
550.21	1188.15
550.57	1188.49
550.92	1188.27
551.28	1188.27
551.64	1187.76
551.99	1187.26
552.35	1187.01
552.70	1186.66
553.06	1185.92
553.41	1185.36
553.77	1185.37
554.13	1185.53
554.48	1185.40
554.84	1185.11
555.19	1185.24
555.55	1185.53
555.90	1185.45
556.26	1185.56
556.61	1185.72
556.97	1184.89
557.32	1184.69
557.68	1184.52
558.03	1184.39
558.39	1184.26
558.74	1184.34
559.10	1184.58
559.45	1184.57
559.81	1184.76
560.16	1184.74
560.52	1184.99
560.87	1185.60
561.23	1185.92
561.58	1186.77
561.94	1187.12
562.29	1187.28
562.64	1187.63
563.00	1187.68
563.35	1187.93
563.71	1188.03
564.06	1187.73
564.42	1187.71
564.77	1187.29
565.12	1187.28
565.48	1187.57
565.83	1187.92
566.19	1188.47
566.54	1188.89
566.89	1189.04
567.25	1188.83
567.60	1189.18
567.96	1189.32
568.31	1189.14
568.66	1188.71
569.02	1188.02
569.37	1187.25
569.72	1186.67
570.08	1185.48
570.43	1184.44
570.78	1183.85
571.14	1182.82
571.49	1182.14
571.84	1181.88
572.20	1181.72
572.55	1181.31
572.90	1180.25
573.26	1179.15
573.61	1177.36
573.96	1175.65
574.31	1174.20
574.67	1172.51
575.02	1170.64
575.37	1169.09
575.72	1167.38
576.08	1165.93
576.43	1163.88
576.78	1162.36
577.13	1161.16
577.49	1159.80
577.84	1158.61
578.19	1157.03
578.54	1155.65
578.90	1154.32
579.25	1152.44
579.60	1150.03
579.95	1147.47
580.30	1145.48
580.66	1143.65
581.01	1142.06
581.36	1140.32
581.71	1138.30
582.06	1136.81
582.42	1135.09
582.77	1132.77
583.12	1130.64
583.47	1128.85
583.82	1126.80
584.17	1124.38
584.53	1122.06
584.88	1119.87
585.23	1117.28
585.58	1114.64
585.93	1112.08
586.28	1109.38
586.63	1106.77
586.98	1104.54
587.34	1102.60
587.69	1099.70
588.04	1096.62
588.39	1093.50
588.74	1090.22
589.09	1087.48
589.44	1084.34
589.79	1081.58
590.14	1079.11
590.49	1075.83
590.84	1072.55
591.19	1069.91
591.54	1067.11
591.89	1063.44
592.25	1060.18
592.60	1056.43
592.95	1052.79
593.30	1049.38
593.65	1046.13
594.00	1043.03
594.35	1040.60
594.70	1037.16
595.05	1034.25
595.40	1031.02
595.75	1027.72
596.10	1024.99
596.45	1021.46
596.80	1018.06
597.15	1014.26
597.50	1010.39
597.85	1007.42
598.19	1004.05
598.54	1000.36
598.89	996.76
599.24	994.00
599.59	990.53
599.94	987.71
600.29	984.76
600.64	981.44
600.99	977.90
601.34	974.33
601.69	969.97
602.04	966.46
602.39	962.48
602.74	958.97
603.08	955.58
603.43	951.93
603.78	948.71
604.13	945.54
604.48	942.43
604.83	939.51
605.18	936.53
605.53	933.37
605.87	930.46
606.22	928.11
606.57	925.59
606.92	923.50
607.27	921.35
607.62	919.31
607.96	917.13
608.31	914.95
608.66	912.58
609.01	910.18
609.36	907.36
609.70	904.85
610.05	901.94
610.40	899.12
610.75	896.30
611.10	893.25
611.44	889.91
611.79	886.65
612.14	883.11
612.49	878.99
612.83	875.18
613.18	871.29
613.53	866.88
613.88	862.13
614.22	857.20
614.57	852.02
614.92	846.72
615.27	841.83
615.61	837.00
615.96	832.35
616.31	827.86
616.65	823.55
617.00	819.21
617.35	815.24
617.70	810.95
618.04	806.69
618.39	802.81
618.74	799.05
619.08	794.88
619.43	790.84
619.78	787.06
620.12	783.17
620.47	779.38
620.82	775.58
621.16	771.91
621.51	768.50
621.85	765.03
622.20	761.66
622.55	758.18
622.89	754.86
623.24	751.66
623.59	748.24
623.93	744.66
624.28	741.05
624.62	737.55
624.97	734.07
625.32	730.30
625.66	726.43
626.01	722.85
626.35	719.67
626.70	716.44
627.04	713.47
627.39	710.41
627.73	707.26
628.08	703.95
628.43	700.49
628.77	696.94
629.12	693.50
629.46	690.18
629.81	686.70
630.15	683.19
630.50	679.75
630.84	676.25
631.19	672.95
631.53	669.72
631.88	666.20
632.22	662.98
632.57	660.06
632.91	656.93
633.26	653.70
633.60	650.27
633.95	646.81
634.29	643.16
634.64	639.68
634.98	635.97
635.32	632.64
635.67	629.62
636.01	626.34
636.36	623.05
636.70	620.00
637.05	616.87
637.39	613.72
637.73	610.45
638.08	607.42
638.42	604.51
638.77	601.57
639.11	598.51
639.45	595.42
639.80	592.29
640.14	589.27
640.49	586.22
640.83	583.37
641.17	580.72
641.52	578.05
641.86	575.31
642.20	572.97
642.55	570.49
642.89	567.85
643.23	565.39
643.58	563.08
643.92	560.40
644.26	557.77
644.61	555.25
644.95	552.63
645.29	549.96
645.64	547.40
645.98	545.09
646.32	542.88
646.66	540.36
647.01	537.91
647.35	535.66
647.69	533.29
648.04	530.87
648.38	528.53
648.72	526.05
649.06	523.47
649.41	520.91
649.75	518.46
650.09	516.07
650.43	513.75
650.78	511.12
651.12	508.63
651.46	506.38
651.80	504.14
652.14	502.06
652.49	499.94
652.83	497.59
653.17	494.95
653.51	492.37
653.85	490.08
654.20	487.84
654.54	485.48
654.88	483.17
655.22	480.84
655.56	478.54
655.90	476.52
656.25	474.58
656.59	472.37
656.93	470.15
657.27	468.13
657.61	465.83
657.95	464.04
658.29	462.00
658.64	459.79
658.98	457.51
659.32	455.24
659.66	453.06
660.00	450.86
660.34	448.83
660.68	446.79
661.02	444.60
661.36	442.52
661.70	440.50
662.05	438.62
662.39	436.79
662.73	434.89
663.07	432.87
663.41	430.83
663.75	428.97
664.09	427.17
664.43	425.08
664.77	423.27
665.11	421.27
665.45	419.43
665.79	417.74
666.13	415.99
666.47	414.18
666.81	412.44
667.15	410.67
667.49	408.97
667.83	407.37
668.17	405.73
668.51	404.04
668.85	402.45
669.19	400.82
669.53	399.17
669.87	397.46
670.21	395.87
670.55	394.27
670.89	392.84
671.23	391.30
671.57	389.83
671.91	388.31
672.25	386.80
672.58	385.45
672.92	383.94
673.26	382.53
673.60	381.15
673.94	379.77
674.28	378.56
674.62	377.26
674.96	375.91
675.30	374.63
675.64	373.36
675.97	372.04
676.31	370.71
676.65	369.40
676.99	368.19
677.33	366.90
677.67	365.68
678.01	364.38
678.34	363.17
678.68	362.11
679.02	360.94
679.36	359.79
679.70	358.55
680.04	357.34
680.37	356.15
680.71	354.93
681.05	353.78
681.39	352.61
681.73	351.43
682.06	350.34
682.40	349.31
682.74	348.33
683.08	347.25
683.42	346.15
683.75	345.11
684.09	344.06
684.43	343.02
684.77	341.98
685.10	340.85
685.44	339.75
685.78	338.57
686.12	337.47
686.45	336.40
686.79	335.33
687.13	334.40
687.46	333.43
687.80	332.55
688.14	331.49
688.48	330.51
688.81	329.53
689.15	328.57
689.49	327.56
689.82	326.53
690.16	325.57
690.50	324.65
690.83	323.67
691.17	322.65
691.51	321.71
691.84	320.83
692.18	319.94
692.52	319.01
692.85	318.20
693.19	317.42
693.52	316.61
693.86	315.82
694.20	314.99
694.53	314.22
694.87	313.32
695.21	312.55
695.54	311.73
695.88	310.91
696.21	309.99
696.55	309.15
696.88	308.38
697.22	307.59
697.56	306.96
697.89	306.32
698.23	305.63
698.56	304.94
698.90	304.30
699.23	303.59
699.57	302.86
699.90	302.20
700.24	301.53
700.58	300.88
700.91	300.25
701.25	299.74
701.58	299.16
701.92	298.70
702.25	298.13
702.59	297.57
702.92	297.09
703.26	296.67
703.59	296.21
703.93	295.88
704.26	295.39
704.60	294.81
704.93	294.22
705.26	293.63
705.60	293.13
705.93	292.43
706.27	292.03
706.60	291.61
706.94	291.12
707.27	290.53
707.61	290.02
707.94	289.55
708.27	288.91
708.61	288.33
708.94	287.73
709.28	287.22
709.61	286.69
709.94	286.13
710.28	285.55
710.61	284.94
710.95	284.08
711.28	283.62
711.61	282.99
711.95	282.46
712.28	281.96
712.61	281.39
712.95	281.06
713.28	280.53
713.61	279.98
713.95	279.38
714.28	278.85
714.61	278.22
714.95	277.68
715.28	277.17
715.61	276.75
715.95	276.17
716.28	275.70
716.61	275.27
716.95	274.83
717.28	274.36
717.61	274.00
717.94	273.68
718.28	273.11
718.61	272.78
718.94	272.41
719.27	271.94
719.61	271.59
719.94	271.14
720.27	270.67
720.60	270.22
720.94	269.80
721.27	269.47
721.60	269.21
721.93	268.88
722.27	268.57
722.60	268.14
722.93	267.88
723.26	267.51
723.59	267.15
723.93	266.82
724.26	266.51
724.59	266.13
724.92	265.79
725.25	265.61
725.59	265.31
725.92	264.98
726.25	264.74
726.58	264.45
726.91	264.15
727.24	263.94
727.57	263.73
727.91	263.47
728.24	263.28
728.57	263.00
728.90	262.75
729.23	262.46
729.56	262.33
729.89	262.08
730.22	261.85
730.55	261.62
730.89	261.38
731.22	261.23
731.55	261.00
731.88	260.75
732.21	260.49
732.54	260.19
732.87	259.93
733.20	259.66
733.53	259.46
733.86	259.27
734.19	258.98
734.52	258.76
734.85	258.70
735.18	258.42
735.51	258.27
735.84	258.04
736.17	257.84
736.50	257.52
736.83	257.57
737.16	257.36
737.49	257.08
737.82	256.89
738.15	256.67
738.48	256.49
738.81	256.30
739.14	256.07
739.47	255.84
739.80	255.61
740.13	255.48
740.46	255.19
740.79	254.90
741.12	254.74
741.45	254.56
741.78	254.23
742.11	254.09
742.44	253.89
742.77	253.76
743.10	253.57
743.43	253.40
743.75	252.97
744.08	253.09
744.41	252.94
744.74	252.73
745.07	252.50
745.40	252.36
745.73	252.27
746.06	252.11
746.39	252.04
746.71	251.95
747.04	251.76
747.37	251.60
747.70	251.49
748.03	251.36
748.36	251.21
748.68	251.05
749.01	250.80
749.34	250.63
749.67	250.45
750.00	250.34
750.33	250.37
750.65	250.22
750.98	249.71
751.31	249.57
751.64	249.42
751.97	249.38
752.29	249.28
752.62	249.06
752.95	248.91
753.28	248.71
753.60	248.57
753.93	248.51
754.26	248.41
754.59	248.18
754.91	248.00
755.24	247.86
755.57	247.74
755.90	247.58
756.22	247.37
756.55	247.21
756.88	247.00
757.20	246.67
757.53	246.53
757.86	246.53
758.19	246.43
758.51	246.30
758.84	246.07
759.17	245.85
759.49	245.75
759.82	245.73
760.15	245.64
760.47	245.45
760.80	245.29
761.13	245.23
761.45	245.15
761.78	245.04
762.11	244.97
762.43	244.84
762.76	244.83
763.08	244.80
763.41	244.70
763.74	244.66
764.06	244.63
764.39	244.49
764.71	244.37
765.04	244.32
765.37	244.21
765.69	244.17
766.02	244.11
766.34	243.95
766.67	243.80
767.00	243.75
767.32	243.77
767.65	243.81
767.97	243.72
768.30	243.65
768.62	243.58
768.95	243.43
769.27	243.34
769.60	243.25
769.92	243.11
770.25	243.01
770.57	242.92
770.90	242.83
771.22	242.79
771.55	242.69
771.87	242.62
772.20	242.55
772.52	242.67
772.85	242.90
773.17	242.87
773.50	242.75
773.82	242.66
774.15	242.50
774.47	242.31
774.80	242.25
775.12	242.21
775.45	242.12
775.77	242.11
776.09	242.13
776.42	242.13
776.74	242.13
777.07	242.12
777.39	242.07
777.72	241.92
778.04	241.91
778.36	241.87
778.69	241.79
779.01	241.76
779.33	241.55
779.66	241.21
779.98	241.15
780.31	241.13
780.63	241.21
780.95	241.25
781.28	241.26
781.60	241.16
781.92	241.10
782.25	241.11
782.57	241.04
782.89	240.95
783.22	240.85
783.54	240.78
783.86	240.77
784.19	240.71
784.51	240.85
784.83	240.75
785.16	240.72
785.48	240.67
785.80	240.66
786.12	240.60
786.45	240.57
786.77	240.57
787.09	240.53
787.42	240.40
787.74	240.34
788.06	240.29
788.38	240.23
788.71	240.21
789.03	240.13
789.35	240.14
789.67	240.12
789.99	240.15
790.32	240.16
790.64	240.10
790.96	240.29
791.28	240.17
791.61	240.13
791.93	240.14
792.25	240.16
792.57	240.27
792.89	240.20
793.21	240.20
793.54	240.10
793.86	240.00
794.18	239.94
794.50	239.83
794.82	239.80
795.14	239.82
795.47	239.79
795.79	239.76
796.11	239.71
796.43	239.63
796.75	239.56
797.07	239.48
797.39	239.40
797.71	239.16
798.04	239.12
798.36	239.12
798.68	239.09
799.00	239.04
799.32	238.95
799.64	238.97
799.96	238.95
800.28	238.98
800.60	239.01
800.92	239.02
801.24	239.02
801.56	238.96
801.89	238.91
802.21	238.91
802.53	238.87
802.85	238.88
803.17	239.00
803.49	238.88
803.81	238.81
804.13	238.85
804.45	238.78
804.77	238.82
805.09	238.80
805.41	238.75
805.73	238.72
806.05	238.58
806.37	238.52
806.69	238.48
807.01	238.49
807.33	238.48
807.65	238.40
807.97	238.48
808.28	238.48
808.60	238.47
808.92	238.46
809.24	238.61
809.56	238.52
809.88	238.40
810.20	238.47
810.52	238.57
810.84	238.48
811.16	238.46
811.48	238.42
811.80	238.46
812.12	238.43
812.43	238.40
812.75	238.43
813.07	238.41
813.39	238.40
813.71	238.33
814.03	238.34
814.35	238.38
814.67	238.28
814.98	238.28
815.30	238.26
815.62	238.22
815.94	238.07
816.26	238.11
816.58	238.06
816.89	238.10
817.21	238.06
817.53	238.13
817.85	238.14
818.17	238.08
818.48	237.97
818.80	238.02
819.12	237.95
819.44	237.82
819.76	237.78
820.07	237.80
820.39	237.81
820.71	237.80
821.03	237.75
821.34	237.73
821.66	237.71
821.98	237.76
822.30	237.71
822.61	237.82
822.93	237.72
823.25	237.74
823.57	237.65
823.88	237.71
824.20	237.67
824.52	237.74
824.83	237.74
825.15	237.73
825.47	237.68
825.79	237.74
826.10	237.82
826.42	237.82
826.74	237.76
827.05	237.72
827.37	237.70
827.69	237.68
828.00	237.68
828.32	237.70
828.64	237.63
828.95	237.72
829.27	237.63
829.58	237.66
829.90	237.71
830.22	237.78
830.53	237.67
830.85	237.72
831.17	237.63
831.48	237.65
831.80	237.65
832.11	237.61
832.43	237.58
832.75	237.49
833.06	237.67
833.38	237.68
833.69	237.63
834.01	237.62
834.32	237.65
834.64	237.58
834.96	237.50
835.27	237.49
835.59	237.42
835.90	237.36
836.22	237.35
836.53	237.25
836.85	237.22
837.16	237.43
837.48	237.34
837.79	237.41
838.11	237.42
838.42	237.41
838.74	237.42
839.05	237.44
839.37	237.54
839.68	237.36
840.00	237.31
840.31	237.37
840.63	237.39
840.94	237.38
841.26	237.38
841.57	237.42
841.88	237.41
842.20	237.44
842.51	237.47
842.83	237.45
843.14	237.69
843.46	237.64
843.77	237.54
844.08	237.54
844.40	237.48
844.71	237.38
845.03	237.39
845.34	237.38
845.65	237.33
845.97	237.28
846.28	237.32
846.60	237.36
846.91	237.30
847.22	237.27
847.54	237.30
847.85	237.34
848.16	237.30
848.48	237.27
848.79	237.32
849.10	237.36
849.42	237.39
849.73	237.17
850.04	237.16
850.36	237.06
850.67	237.10
850.98	237.08
851.30	237.13
851.61	237.12
851.92	237.10
852.23	237.16
852.55	237.17
852.86	237.15
853.17	237.13
853.49	237.19
853.80	237.20
854.11	237.23
854.42	237.24
854.74	237.26
855.05	237.25
855.36	237.14
855.67	237.10
855.99	237.12
856.30	237.37
856.61	237.39
856.92	237.37
857.23	237.37
857.55	237.35
857.86	237.33
858.17	237.34
858.48	237.32
858.79	237.21
859.11	237.20
859.42	237.18
859.73	237.15
860.04	237.12
860.35	237.13
860.66	237.01
860.98	237.01
861.29	237.02
861.60	236.95
861.91	236.98
862.22	236.95
862.53	236.85
862.84	236.54
863.16	236.57
863.47	236.52
863.78	236.45
864.09	236.43
864.40	236.43
864.71	236.45
865.02	236.53
865.33	236.54
865.64	236.57
865.95	236.53
866.27	236.64
866.58	236.64
866.89	236.59
867.20	236.64
867.51	236.57
867.82	236.50
868.13	236.61
868.44	236.55
868.75	236.59
869.06	236.64
869.37	236.68
869.68	236.62
869.99	236.71
870.30	236.80
870.61	236.81
870.92	236.81
871.23	236.74
871.54	236.74
871.85	236.79
872.16	236.77
872.47	236.77
872.78	236.72
873.09	236.71
873.40	236.68
873.71	236.66
874.02	236.64
874.33	236.66
874.64	236.55
874.95	236.63
875.26	236.57
875.56	236.57
875.87	236.60
876.18	236.56
876.49	236.72
876.80	236.62
877.11	236.63
877.42	236.61
877.73	236.66
878.04	236.61
878.35	236.62
878.66	236.64
878.96	236.64
879.27	236.60
879.58	236.59
879.89	236.63
880.20	236.66
880.51	236.69
880.82	236.68
881.12	236.70
881.43	236.61
881.74	236.55
882.05	236.56
882.36	236.51
882.67	236.48
882.97	236.23
883.28	236.23
883.59	236.19
883.90	236.22
884.21	236.17
884.51	236.16
884.82	236.10
885.13	236.16
885.44	236.13
885.74	236.11
886.05	236.08
886.36	236.10
886.67	236.02
886.98	236.13
887.28	236.14
887.59	236.22
887.90	236.23
888.20	236.18
888.51	236.20
888.82	236.15
889.13	236.21
889.43	236.45
889.74	236.46
890.05	236.42
890.35	236.38
890.66	236.44
890.97	236.41
891.28	236.44
891.58	236.35
891.89	236.36
892.20	236.33
892.50	236.32
892.81	236.28
893.12	236.32
893.42	236.20
893.73	236.23
894.04	236.21
894.34	236.29
894.65	236.34
894.95	236.33
895.26	236.38
895.57	236.46
895.87	236.22
896.18	236.23
896.48	236.33
896.79	236.34
897.10	236.28
897.40	236.33
897.71	236.35
898.01	236.31
898.32	236.37
898.63	236.40
898.93	236.42
899.24	236.38
899.54	236.38
899.85	236.39
900.15	236.35
900.46	236.37
900.76	236.31
901.07	236.38
901.38	236.41
901.68	236.46
901.99	236.36
902.29	236.40
902.60	236.40
902.90	236.39
903.21	236.33
903.51	236.34
903.82	236.42
904.12	236.43
904.43	236.47
904.73	236.44
905.03	236.43
905.34	236.67
905.64	236.67
905.95	236.66
906.25	236.65
906.56	236.68
906.86	236.67
907.17	236.70
907.47	236.69
907.77	236.68
908.08	236.64
908.38	236.69
908.69	236.70
908.99	236.76
909.30	236.78
909.60	236.88
909.90	236.93
910.21	236.81
910.51	236.79
910.81	236.82
911.12	236.88
911.42	236.83
911.73	236.60
912.03	236.65
912.33	236.67
912.64	236.67
912.94	236.67
913.24	236.63
913.55	236.63
913.85	236.64
914.15	236.68
914.46	236.72
914.76	236.73
915.06	236.67
915.37	236.63
915.67	236.63
915.97	236.57
916.27	236.54
916.58	236.58
916.88	236.54
917.18	236.51
917.49	236.66
917.79	236.67
918.09	236.75
918.39	236.82
918.70	236.82
919.00	236.84
919.30	236.95
919.60	236.95
919.91	236.93
920.21	236.94
920.51	236.89
920.81	236.81
921.12	236.81
921.42	236.85
921.72	236.88
922.02	236.93
922.32	236.97
922.63	236.95
922.93	237.00
923.23	237.05
923.53	237.09
923.83	236.97
924.13	236.96
924.44	236.95
924.74	236.97
925.04	237.00
925.34	236.96
925.64	236.90
925.94	236.84
926.24	236.97
926.55	236.92
926.85	236.91
927.15	236.90
927.45	236.93
927.75	236.89
928.05	236.89
928.35	236.79
928.65	236.81
928.95	236.89
929.26	236.82
929.56	236.84
929.86	236.87
930.16	236.79
930.46	236.83
930.76	236.77
931.06	236.63
931.36	236.55
931.66	236.63
931.96	236.55
932.26	236.64
932.56	236.50
932.86	236.50
933.16	236.53
933.46	236.56
933.76	236.50
934.06	236.55
934.36	236.55
934.66	236.57
934.96	236.53
935.26	236.47
935.56	236.51
935.86	236.40
936.16	236.35
936.46	236.32
936.76	236.30
937.06	236.34
937.36	236.37
937.66	236.39
937.96	236.35
938.26	236.28
938.56	236.27
938.86	236.30
939.16	236.32
939.46	236.36
939.76	236.35
940.06	236.38
940.35	236.30
940.65	236.25
940.95	236.27
941.25	236.19
941.55	236.19
941.85	236.13
942.15	236.18
942.45	236.25
942.75	236.23
943.04	236.20
943.34	236.20
943.64	236.26
943.94	236.28
944.24	236.23
944.54	236.28
944.84	236.25
945.13	236.27
945.43	236.25
945.73	236.14
946.03	236.12
946.33	236.10
946.62	236.13
946.92	236.11
947.22	236.12
947.52	236.16
947.82	236.17
948.11	236.16
948.41	236.16
948.71	236.04
949.01	236.11
949.31	236.07
949.60	236.10
949.90	236.05
950.20	235.97
950.50	236.00
950.79	236.00
951.09	236.06
951.39	235.97
951.69	235.93
951.98	236.02
952.28	236.06
952.58	236.04
952.87	236.03
953.17	236.11
953.47	236.07
953.76	236.09
954.06	236.09
954.36	236.06
954.66	236.05
954.95	236.19
955.25	236.18
955.55	236.19
955.84	236.15
956.14	236.19
956.44	236.27
956.73	236.24
957.03	236.29
957.32	236.29
957.62	236.31
957.92	236.38
958.21	236.37
958.51	236.60
958.81	236.61
959.10	236.64
959.40	236.64
959.69	236.67
959.99	236.76
960.29	236.75
960.58	236.78
960.88	236.78
961.17	236.74
961.47	236.76
961.76	236.85
962.06	236.87
962.36	236.83
962.65	236.82
962.95	236.83
963.24	236.81
963.54	236.80
963.83	236.79
964.13	236.79
964.42	236.72
964.72	236.55
965.01	236.53
965.31	236.54
965.60	236.49
965.90	236.65
966.19	236.53
966.49	236.53
966.78	236.58
967.08	236.62
967.37	236.55
967.67	236.50
967.96	236.47
968.26	236.49
968.55	236.55
968.85	236.53
969.14	236.56
969.43	236.56
969.73	236.51
970.02	236.49
970.32	236.50
970.61	236.48
970.91	236.44
971.20	236.45
971.49	236.42
971.79	236.47
972.08	236.29
972.38	236.33
972.67	236.31
972.96	236.26
973.26	236.19
973.55	236.31
973.85	236.35
974.14	236.34
974.43	236.32
974.73	236.22
975.02	236.18
975.31	236.16
975.61	236.17
975.90	236.23
976.19	236.24
976.49	236.21
976.78	236.23
977.07	236.24
977.37	236.25
977.66	236.21
977.95	236.11
978.24	236.15
978.54	236.20
978.83	236.19
979.12	236.17
979.42	236.23
979.71	236.18
980.00	236.12
980.29	236.12
980.59	236.09
980.88	236.23
981.17	236.29
981.46	236.30
981.76	236.32
982.05	236.35
982.34	236.33
982.63	236.31
982.93	236.35
983.22	236.36
983.51	236.40
983.80	236.45
984.09	236.50
984.39	236.45
984.68	236.42
984.97	236.41
985.26	236.41
985.55	236.39
985.85	236.35
986.14	236.40
986.43	236.46
986.72	236.40
987.01	236.30
987.30	236.27
987.59	236.25
987.89	236.20
988.18	236.06
988.47	236.09
988.76	236.13
989.05	236.10
989.34	236.12
989.63	236.18
989.92	236.13
990.22	236.15
990.51	236.18
990.80	236.14
991.09	236.17
991.38	236.20
991.67	236.20
991.96	236.23
992.25	236.25
992.54	236.17
992.83	236.17
993.12	236.18
993.41	236.21
993.70	236.34
993.99	236.40
994.28	236.46
994.58	236.48
994.87	236.47
995.16	236.42
995.45	236.38
995.74	236.22
996.03	236.24
996.32	236.25
996.61	236.29
996.90	236.24
997.19	236.24
997.48	236.27
997.77	236.20
998.06	236.19
998.34	236.17
998.63	236.17
998.92	236.18
999.21	236.21
999.50	236.19
999.79	236.04
1000.08	235.98
1000.37	236.00
1000.66	235.93
1000.95	235.95
1001.24	235.99
1001.53	235.99
1001.82	236.02
1002.11	236.02
1002.40	235.99
1002.68	236.00
1002.97	236.18
1003.26	236.12
1003.55	236.11
1003.84	236.11
1004.13	236.17
1004.42	236.10
1004.71	236.09
1004.99	236.09
1005.28	236.08
1005.57	236.08
1005.86	236.10
1006.15	236.14
1006.44	236.12
1006.72	236.19
1007.01	236.14
1007.30	236.15
1007.59	236.14
1007.88	236.15
1008.17	236.12
1008.45	236.10
1008.74	236.00
1009.03	235.92
1009.32	235.92
1009.60	235.88
1009.89	235.87
1010.18	235.74
1010.47	235.81
1010.76	235.84
1011.04	235.84
1011.33	235.87
1011.62	235.86
1011.91	235.87
1012.19	235.88
1012.48	235.85
1012.77	235.87
1013.05	236.02
1013.34	236.01
1013.63	236.01
1013.92	236.00
1014.20	236.00
1014.49	236.03
1014.78	236.11
1015.06	236.07
1015.35	236.08
1015.64	236.06
1015.92	236.08
1016.21	236.09
1016.50	236.12
1016.78	236.09
1017.07	236.11
1017.36	236.08
1017.64	236.11
1017.93	236.05
1018.22	236.05
1018.50	236.10
1018.79	236.12
1019.08	235.99
1019.36	236.05
1019.65	236.01
1019.93	236.10
1020.22	236.15
1020.51	236.27
1020.79	236.25
1021.08	236.57
1021.36	236.40
1021.65	237.07
1021.94	236.20
1022.22	237.07
1022.51	235.43
1022.79	237.17
1023.08	236.57
1023.36	238.93
1023.65	236.17
>>>>>End Processed Spectral Data<<<<<
