SpectraSuite Data File
++++++++++++++++++++++++++++++++++++
Date: Mon Oct 22 15:14:32 EDT 2012
User: group
Dark Spectrum Present: No
Reference Spectrum Present: No
Number of Sampled Component Spectra: 1
Spectrometers: USB2E7196
Integration Time (usec): 91000 (USB2E7196)
Spectra Averaged: 30 (USB2E7196)
Boxcar Smoothing: 10 (USB2E7196)
Correct for Electrical Dark: No (USB2E7196)
Strobe/Lamp Enabled: No (USB2E7196)
Correct for Detector Non-linearity: No (USB2E7196)
Correct for Stray Light: No (USB2E7196)
Number of Pixels in Processed Spectrum: 2048
>>>>>Begin Processed Spectral Data<<<<<
339.09	0.00
339.48	224.20
339.86	224.03
340.24	227.20
340.63	227.57
341.01	232.53
341.39	231.90
341.78	232.80
342.16	233.50
342.54	233.23
342.93	222.24
343.31	233.45
343.69	233.97
344.07	234.51
344.46	234.95
344.84	235.38
345.22	235.61
345.60	235.88
345.99	236.07
346.37	236.24
346.75	236.41
347.13	236.49
347.52	236.60
347.90	236.78
348.28	236.83
348.66	236.87
349.05	236.87
349.43	236.93
349.81	237.01
350.19	237.07
350.57	237.12
350.96	237.21
351.34	237.37
351.72	237.50
352.10	237.62
352.48	237.69
352.87	237.78
353.25	237.80
353.63	237.85
354.01	237.92
354.39	238.04
354.77	238.08
355.15	238.19
355.54	238.18
355.92	238.10
356.30	238.21
356.68	238.39
357.06	238.51
357.44	238.53
357.82	238.58
358.20	238.63
358.58	238.71
358.97	238.79
359.35	238.82
359.73	238.89
360.11	238.94
360.49	238.98
360.87	238.98
361.25	239.04
361.63	239.03
362.01	239.07
362.39	239.04
362.77	239.16
363.15	239.18
363.53	239.19
363.91	239.22
364.29	239.23
364.67	239.07
365.05	239.05
365.43	239.01
365.81	239.05
366.19	239.08
366.57	239.17
366.95	239.12
367.33	239.07
367.71	239.04
368.09	239.05
368.47	239.01
368.85	239.01
369.23	238.97
369.61	238.88
369.99	238.87
370.37	238.85
370.75	238.86
371.13	238.80
371.51	238.76
371.89	238.70
372.27	238.63
372.65	238.58
373.03	238.49
373.41	238.45
373.78	238.34
374.16	238.21
374.54	238.07
374.92	237.98
375.30	237.89
375.68	237.79
376.06	237.78
376.44	237.70
376.82	237.65
377.19	237.63
377.57	237.61
377.95	237.50
378.33	237.48
378.71	237.27
379.09	237.18
379.47	237.17
379.84	237.09
380.22	237.07
380.60	237.00
380.98	236.92
381.36	236.90
381.73	236.86
382.11	236.85
382.49	236.77
382.87	236.71
383.25	236.72
383.62	236.93
384.00	236.83
384.38	236.85
384.76	236.84
385.13	236.82
385.51	236.85
385.89	236.82
386.27	236.76
386.64	236.73
387.02	236.73
387.40	236.65
387.78	236.69
388.15	236.58
388.53	236.56
388.91	236.58
389.29	236.58
389.66	236.57
390.04	236.51
390.42	236.57
390.79	236.59
391.17	236.53
391.55	236.30
391.92	236.27
392.30	236.26
392.68	236.22
393.05	236.23
393.43	236.17
393.81	236.20
394.18	236.13
394.56	236.22
394.94	236.25
395.31	236.28
395.69	236.33
396.06	236.43
396.44	236.49
396.82	236.55
397.19	236.67
397.57	236.69
397.95	236.84
398.32	236.81
398.70	236.84
399.07	236.98
399.45	237.10
399.82	237.12
400.20	237.18
400.58	237.30
400.95	237.31
401.33	237.51
401.70	237.78
402.08	237.91
402.45	238.03
402.83	238.19
403.20	238.33
403.58	238.49
403.95	238.70
404.33	238.88
404.71	239.02
405.08	239.29
405.46	239.56
405.83	239.80
406.21	240.11
406.58	240.50
406.96	240.73
407.33	241.07
407.70	241.47
408.08	242.01
408.45	242.47
408.83	243.03
409.20	243.44
409.58	243.73
409.95	244.36
410.33	244.97
410.70	245.65
411.08	246.42
411.45	247.13
411.82	247.94
412.20	248.88
412.57	250.02
412.95	250.90
413.32	251.94
413.69	253.05
414.07	254.28
414.44	255.59
414.82	257.01
415.19	258.56
415.56	260.23
415.94	261.87
416.31	263.81
416.68	265.66
417.06	267.85
417.43	270.07
417.81	272.45
418.18	274.99
418.55	277.67
418.93	280.49
419.30	283.45
419.67	286.56
420.04	289.76
420.42	293.14
420.79	296.99
421.16	301.04
421.54	305.08
421.91	309.25
422.28	313.63
422.66	318.37
423.03	322.97
423.40	327.82
423.77	333.09
424.15	338.37
424.52	343.97
424.89	350.09
425.26	355.98
425.64	361.60
426.01	367.70
426.38	374.05
426.75	380.64
427.13	387.45
427.50	394.59
427.87	402.06
428.24	409.57
428.61	416.83
428.99	424.74
429.36	433.52
429.73	442.22
430.10	450.88
430.47	459.68
430.85	468.96
431.22	478.61
431.59	489.03
431.96	498.91
432.33	509.85
432.70	520.45
433.08	533.14
433.45	545.15
433.82	557.06
434.19	570.46
434.56	583.34
434.93	595.96
435.30	608.50
435.68	622.41
436.05	636.08
436.42	649.81
436.79	662.50
437.16	676.14
437.53	690.45
437.90	704.77
438.27	718.91
438.64	733.47
439.01	747.18
439.38	759.34
439.75	771.23
440.13	784.63
440.50	797.17
440.87	807.59
441.24	818.41
441.61	830.23
441.98	839.10
442.35	849.52
442.72	859.93
443.09	869.85
443.46	876.04
443.83	880.55
444.20	884.42
444.57	889.73
444.94	892.26
445.31	895.00
445.68	897.34
446.05	898.51
446.42	897.66
446.79	896.29
447.16	894.69
447.53	893.54
447.90	888.73
448.27	883.84
448.64	876.69
449.01	871.43
449.37	862.37
449.74	853.65
450.11	842.86
450.48	831.24
450.85	819.61
451.22	809.76
451.59	800.30
451.96	791.31
452.33	779.18
452.70	768.46
453.07	755.48
453.43	742.27
453.80	729.55
454.17	717.36
454.54	705.94
454.91	693.73
455.28	681.81
455.65	670.69
456.02	659.58
456.38	650.36
456.75	638.77
457.12	629.26
457.49	619.67
457.86	610.69
458.23	602.80
458.59	594.13
458.96	585.29
459.33	577.48
459.70	569.58
460.07	563.35
460.43	556.02
460.80	549.24
461.17	543.38
461.54	537.38
461.91	531.43
462.27	525.42
462.64	520.24
463.01	514.59
463.38	509.14
463.74	503.79
464.11	498.88
464.48	494.69
464.85	489.95
465.21	486.50
465.58	482.83
465.95	478.44
466.32	474.87
466.68	471.27
467.05	467.61
467.42	463.97
467.78	460.20
468.15	456.58
468.52	453.89
468.88	450.49
469.25	447.30
469.62	444.86
469.98	442.13
470.35	439.63
470.72	437.29
471.08	434.72
471.45	432.60
471.82	430.43
472.18	428.02
472.55	426.47
472.92	424.38
473.28	422.69
473.65	421.07
474.02	419.37
474.38	417.86
474.75	416.65
475.11	415.47
475.48	414.53
475.85	413.84
476.21	413.08
476.58	412.47
476.94	412.07
477.31	411.27
477.67	410.68
478.04	410.33
478.41	410.25
478.77	410.28
479.14	409.98
479.50	410.09
479.87	410.45
480.23	410.75
480.60	410.95
480.96	411.07
481.33	411.73
481.69	412.34
482.06	412.90
482.42	413.37
482.79	413.96
483.15	414.82
483.52	415.92
483.88	416.93
484.25	417.95
484.61	419.04
484.98	420.37
485.34	422.01
485.71	423.67
486.07	425.27
486.44	426.86
486.80	428.93
487.17	430.90
487.53	433.07
487.90	435.24
488.26	437.57
488.62	440.12
488.99	442.47
489.35	444.95
489.72	447.73
490.08	450.75
490.44	453.80
490.81	456.95
491.17	460.09
491.54	463.55
491.90	467.05
492.26	470.69
492.63	474.47
492.99	478.13
493.36	481.99
493.72	486.13
494.08	490.31
494.45	494.63
494.81	499.08
495.17	503.59
495.54	508.28
495.90	513.24
496.26	518.13
496.63	523.04
496.99	528.29
497.35	533.71
497.72	539.27
498.08	544.76
498.44	550.29
498.80	556.15
499.17	561.84
499.53	567.71
499.89	573.68
500.26	579.58
500.62	585.62
500.98	591.91
501.34	598.17
501.71	604.65
502.07	610.97
502.43	617.37
502.79	623.84
503.16	630.26
503.52	636.75
503.88	643.35
504.24	649.93
504.60	656.36
504.97	662.84
505.33	669.15
505.69	676.01
506.05	682.61
506.41	689.01
506.78	695.61
507.14	702.12
507.50	708.59
507.86	715.23
508.22	721.78
508.59	727.79
508.95	734.00
509.31	740.06
509.67	746.17
510.03	752.00
510.39	757.67
510.75	763.53
511.12	769.09
511.48	774.53
511.84	779.88
512.20	785.05
512.56	790.22
512.92	795.21
513.28	800.04
513.64	804.75
514.00	809.22
514.37	813.29
514.73	817.28
515.09	821.13
515.45	824.91
515.81	828.37
516.17	831.90
516.53	835.05
516.89	838.23
517.25	841.03
517.61	844.09
517.97	846.81
518.33	849.05
518.69	851.12
519.05	853.34
519.41	855.35
519.77	857.45
520.13	859.25
520.49	860.88
520.85	861.97
521.21	863.30
521.57	864.64
521.93	865.64
522.29	866.54
522.65	867.13
523.01	867.45
523.37	867.77
523.73	868.25
524.09	868.30
524.45	868.14
524.81	868.12
525.17	867.83
525.53	867.49
525.89	867.21
526.25	867.02
526.61	866.19
526.97	865.61
527.33	865.10
527.68	864.75
528.04	864.22
528.40	863.34
528.76	862.50
529.12	861.55
529.48	860.77
529.84	859.78
530.20	859.00
530.56	858.05
530.91	857.45
531.27	856.52
531.63	855.91
531.99	855.16
532.35	854.02
532.71	852.99
533.07	852.22
533.42	851.25
533.78	850.31
534.14	849.58
534.50	848.72
534.86	847.92
535.21	846.45
535.57	845.50
535.93	844.53
536.29	843.65
536.65	843.02
537.00	842.30
537.36	841.70
537.72	841.13
538.08	840.80
538.44	840.03
538.79	839.58
539.15	838.97
539.51	838.66
539.87	838.66
540.22	838.19
540.58	837.87
540.94	837.63
541.29	837.23
541.65	836.90
542.01	836.78
542.37	836.38
542.72	836.25
543.08	835.75
543.44	835.95
543.79	835.59
544.15	835.20
544.51	835.13
544.87	835.13
545.22	834.95
545.58	834.83
545.94	834.70
546.29	834.23
546.65	833.91
547.01	833.54
547.36	833.37
547.72	833.42
548.07	833.16
548.43	833.15
548.79	833.27
549.14	833.45
549.50	833.83
549.86	834.25
550.21	834.65
550.57	835.27
550.92	835.59
551.28	836.13
551.64	836.49
551.99	836.84
552.35	837.20
552.70	837.74
553.06	838.12
553.41	838.70
553.77	839.53
554.13	840.32
554.48	841.15
554.84	841.90
555.19	842.92
555.55	844.27
555.90	845.29
556.26	846.40
556.61	847.34
556.97	847.88
557.32	848.74
557.68	849.75
558.03	850.78
558.39	851.88
558.74	853.22
559.10	854.44
559.45	855.75
559.81	857.29
560.16	858.59
560.52	860.03
560.87	861.68
561.23	863.26
561.58	865.35
561.94	867.20
562.29	868.60
562.64	870.29
563.00	871.82
563.35	873.32
563.71	874.66
564.06	876.13
564.42	877.47
564.77	878.61
565.12	880.03
565.48	881.75
565.83	883.38
566.19	885.23
566.54	887.04
566.89	888.55
567.25	889.90
567.60	891.44
567.96	892.84
568.31	894.13
568.66	895.25
569.02	895.98
569.37	896.77
569.72	897.84
570.08	898.50
570.43	899.35
570.78	900.43
571.14	901.36
571.49	902.23
571.84	903.58
572.20	904.69
572.55	905.89
572.90	906.43
573.26	907.01
573.61	907.08
573.96	907.11
574.31	907.36
574.67	907.54
575.02	907.66
575.37	907.97
575.72	908.08
576.08	908.39
576.43	908.52
576.78	908.71
577.13	908.97
577.49	909.27
577.84	909.51
578.19	909.64
578.54	909.71
578.90	909.85
579.25	909.53
579.60	909.18
579.95	908.39
580.30	908.34
580.66	908.13
581.01	908.00
581.36	907.90
581.71	907.85
582.06	907.82
582.42	907.55
582.77	907.01
583.12	906.68
583.47	906.29
583.82	905.90
584.17	905.39
584.53	904.79
584.88	904.08
585.23	903.23
585.58	902.29
585.93	901.31
586.28	900.31
586.63	899.30
586.98	898.44
587.34	897.73
587.69	896.23
588.04	894.86
588.39	893.50
588.74	891.83
589.09	890.44
589.44	888.85
589.79	887.54
590.14	886.37
590.49	884.66
590.84	882.92
591.19	881.44
591.54	879.68
591.89	877.77
592.25	876.03
592.60	873.87
592.95	871.76
593.30	870.11
593.65	868.24
594.00	866.47
594.35	865.41
594.70	863.55
595.05	862.06
595.40	860.27
595.75	858.26
596.10	856.74
596.45	854.40
596.80	852.27
597.15	850.00
597.50	847.56
597.85	845.91
598.19	844.01
598.54	841.57
598.89	839.39
599.24	837.62
599.59	835.55
599.94	833.78
600.29	831.91
600.64	829.77
600.99	827.66
601.34	825.47
601.69	822.34
602.04	820.04
602.39	817.46
602.74	815.14
603.08	812.93
603.43	810.84
603.78	808.97
604.13	807.02
604.48	805.10
604.83	803.29
605.18	801.19
605.53	799.03
605.87	797.38
606.22	796.22
606.57	794.82
606.92	793.79
607.27	792.82
607.62	791.93
607.96	790.82
608.31	789.71
608.66	788.48
609.01	787.33
609.36	785.74
609.70	784.04
610.05	782.31
610.40	780.64
610.75	778.75
611.10	776.76
611.44	774.26
611.79	772.06
612.14	769.70
612.49	766.79
612.83	764.12
613.18	761.10
613.53	757.58
613.88	753.89
614.22	749.93
614.57	745.79
614.92	741.58
615.27	737.57
615.61	733.58
615.96	729.82
616.31	726.12
616.65	722.69
617.00	719.32
617.35	716.21
617.70	712.95
618.04	709.52
618.39	706.50
618.74	703.74
619.08	700.53
619.43	697.33
619.78	694.42
620.12	691.53
620.47	688.81
620.82	686.03
621.16	683.33
621.51	680.64
621.85	677.98
622.20	675.41
622.55	672.72
622.89	670.29
623.24	667.78
623.59	665.12
623.93	662.45
624.28	659.91
624.62	657.01
624.97	654.16
625.32	651.37
625.66	648.47
626.01	645.72
626.35	643.30
626.70	640.76
627.04	638.46
627.39	635.93
627.73	633.41
628.08	630.88
628.43	628.13
628.77	625.41
629.12	622.60
629.46	619.98
629.81	617.42
630.15	614.55
630.50	611.85
630.84	609.18
631.19	606.48
631.53	603.78
631.88	601.08
632.22	598.57
632.57	596.20
632.91	593.69
633.26	590.99
633.60	588.04
633.95	585.22
634.29	582.20
634.64	579.37
634.98	576.47
635.32	573.71
635.67	571.24
636.01	568.62
636.36	566.13
636.70	563.60
637.05	560.94
637.39	558.43
637.73	555.84
638.08	553.45
638.42	551.01
638.77	548.70
639.11	546.33
639.45	543.99
639.80	541.50
640.14	538.95
640.49	536.59
640.83	534.33
641.17	532.13
641.52	530.08
641.86	527.97
642.20	526.01
642.55	523.89
642.89	521.84
643.23	519.83
643.58	517.83
643.92	515.70
644.26	513.68
644.61	511.66
644.95	509.58
645.29	507.41
645.64	505.24
645.98	503.24
646.32	501.33
646.66	499.09
647.01	497.03
647.35	495.19
647.69	493.18
648.04	491.37
648.38	489.48
648.72	487.37
649.06	485.28
649.41	483.17
649.75	481.13
650.09	479.00
650.43	477.06
650.78	474.94
651.12	472.82
651.46	470.88
651.80	468.93
652.14	467.17
652.49	465.25
652.83	463.37
653.17	461.16
653.51	459.02
653.85	457.16
654.20	455.20
654.54	453.12
654.88	451.29
655.22	449.19
655.56	447.25
655.90	445.52
656.25	443.73
656.59	441.92
656.93	440.10
657.27	438.37
657.61	436.45
657.95	434.90
658.29	433.19
658.64	431.43
658.98	429.62
659.32	427.65
659.66	425.87
660.00	424.05
660.34	422.30
660.68	420.55
661.02	418.74
661.36	416.95
661.70	415.30
662.05	413.63
662.39	412.06
662.73	410.41
663.07	408.73
663.41	407.12
663.75	405.51
664.09	403.90
664.43	402.25
664.77	400.65
665.11	398.91
665.45	397.33
665.79	395.74
666.13	394.13
666.47	392.65
666.81	391.14
667.15	389.52
667.49	388.15
667.83	386.80
668.17	385.34
668.51	383.98
668.85	382.62
669.19	381.28
669.53	379.93
669.87	378.53
670.21	377.13
670.55	375.74
670.89	374.51
671.23	373.22
671.57	371.92
671.91	370.71
672.25	369.51
672.58	368.33
672.92	367.02
673.26	365.86
673.60	364.68
673.94	363.44
674.28	362.42
674.62	361.28
674.96	359.99
675.30	358.86
675.64	357.76
675.97	356.53
676.31	355.38
676.65	354.14
676.99	353.13
677.33	351.98
677.67	350.93
678.01	349.73
678.34	348.76
678.68	347.78
679.02	346.74
679.36	345.74
679.70	344.72
680.04	343.77
680.37	342.68
680.71	341.50
681.05	340.55
681.39	339.53
681.73	338.47
682.06	337.57
682.40	336.66
682.74	335.73
683.08	334.94
683.42	333.97
683.75	333.11
684.09	332.13
684.43	331.33
684.77	330.33
685.10	329.41
685.44	328.36
685.78	327.35
686.12	326.37
686.45	325.37
686.79	324.38
687.13	323.52
687.46	322.75
687.80	322.12
688.14	321.21
688.48	320.40
688.81	319.57
689.15	318.80
689.49	317.96
689.82	317.13
690.16	316.21
690.50	315.44
690.83	314.61
691.17	313.72
691.51	312.80
691.84	312.02
692.18	311.20
692.52	310.33
692.85	309.59
693.19	308.94
693.52	308.23
693.86	307.55
694.20	306.86
694.53	306.17
694.87	305.33
695.21	304.54
695.54	303.82
695.88	303.09
696.21	302.25
696.55	301.53
696.88	300.80
697.22	300.07
697.56	299.37
697.89	298.76
698.23	298.24
698.56	297.68
698.90	297.21
699.23	296.62
699.57	296.14
699.90	295.60
700.24	294.94
700.58	294.41
700.91	293.88
701.25	293.43
701.58	292.95
701.92	292.50
702.25	292.08
702.59	291.60
702.92	291.22
703.26	290.83
703.59	290.43
703.93	290.20
704.26	289.82
704.60	289.37
704.93	288.90
705.26	288.34
705.60	287.96
705.93	287.35
706.27	286.98
706.60	286.57
706.94	286.23
707.27	285.78
707.61	285.28
707.94	284.79
708.27	284.22
708.61	283.63
708.94	283.11
709.28	282.65
709.61	282.13
709.94	281.67
710.28	281.14
710.61	280.59
710.95	279.80
711.28	279.39
711.61	278.88
711.95	278.39
712.28	277.88
712.61	277.27
712.95	276.90
713.28	276.51
713.61	275.90
713.95	275.25
714.28	274.75
714.61	274.23
714.95	273.77
715.28	273.22
715.61	272.73
715.95	272.24
716.28	271.74
716.61	271.36
716.95	270.82
717.28	270.41
717.61	269.99
717.94	269.62
718.28	269.06
718.61	268.68
718.94	268.31
719.27	268.03
719.61	267.76
719.94	267.36
720.27	266.91
720.60	266.63
720.94	266.30
721.27	265.97
721.60	265.75
721.93	265.49
722.27	265.30
722.60	265.12
722.93	264.89
723.26	264.68
723.59	264.37
723.93	264.15
724.26	263.91
724.59	263.61
724.92	263.36
725.25	263.22
725.59	262.99
725.92	262.75
726.25	262.47
726.58	262.22
726.91	261.95
727.24	261.68
727.57	261.45
727.91	261.19
728.24	260.99
728.57	260.68
728.90	260.39
729.23	260.06
729.56	259.88
729.89	259.61
730.22	259.33
730.55	259.08
730.89	258.81
731.22	258.59
731.55	258.40
731.88	258.15
732.21	257.85
732.54	257.62
732.87	257.36
733.20	257.17
733.53	256.98
733.86	256.81
734.19	256.56
734.52	256.40
734.85	256.31
735.18	256.07
735.51	255.92
735.84	255.78
736.17	255.67
736.50	255.33
736.83	255.39
737.16	255.23
737.49	255.09
737.82	254.94
738.15	254.80
738.48	254.63
738.81	254.48
739.14	254.27
739.47	254.07
739.80	253.86
740.13	253.64
740.46	253.39
740.79	253.23
741.12	253.08
741.45	252.82
741.78	252.55
742.11	252.42
742.44	252.24
742.77	252.10
743.10	251.86
743.43	251.71
743.75	251.39
744.08	251.52
744.41	251.35
744.74	251.18
745.07	250.94
745.40	250.80
745.73	250.79
746.06	250.63
746.39	250.47
746.71	250.33
747.04	250.27
747.37	250.12
747.70	249.99
748.03	249.85
748.36	249.75
748.68	249.56
749.01	249.41
749.34	249.31
749.67	249.17
750.00	249.09
750.33	249.17
750.65	249.03
750.98	248.65
751.31	248.53
751.64	248.40
751.97	248.41
752.29	248.28
752.62	248.01
752.95	247.95
753.28	247.87
753.60	247.80
753.93	247.66
754.26	247.54
754.59	247.36
754.91	247.27
755.24	247.17
755.57	247.09
755.90	246.95
756.22	246.82
756.55	246.69
756.88	246.59
757.20	246.28
757.53	246.10
757.86	246.00
758.19	245.85
758.51	245.77
758.84	245.58
759.17	245.48
759.49	245.45
759.82	245.46
760.15	245.37
760.47	245.26
760.80	245.12
761.13	245.10
761.45	244.98
761.78	244.85
762.11	244.79
762.43	244.67
762.76	244.61
763.08	244.52
763.41	244.41
763.74	244.28
764.06	244.23
764.39	244.13
764.71	244.02
765.04	243.91
765.37	243.82
765.69	243.68
766.02	243.64
766.34	243.51
766.67	243.29
767.00	243.23
767.32	243.23
767.65	243.23
767.97	243.14
768.30	243.13
768.62	243.08
768.95	242.94
769.27	242.95
769.60	242.89
769.92	242.80
770.25	242.69
770.57	242.56
770.90	242.46
771.22	242.47
771.55	242.41
771.87	242.42
772.20	242.34
772.52	242.52
772.85	242.60
773.17	242.55
773.50	242.50
773.82	242.44
774.15	242.28
774.47	242.16
774.80	242.07
775.12	241.90
775.45	241.79
775.77	241.82
776.09	241.70
776.42	241.61
776.74	241.61
777.07	241.58
777.39	241.54
777.72	241.48
778.04	241.40
778.36	241.31
778.69	241.21
779.01	241.14
779.33	240.94
779.66	240.73
779.98	240.70
780.31	240.63
780.63	240.64
780.95	240.66
781.28	240.61
781.60	240.62
781.92	240.60
782.25	240.64
782.57	240.58
782.89	240.61
783.22	240.57
783.54	240.49
783.86	240.44
784.19	240.40
784.51	240.43
784.83	240.30
785.16	240.28
785.48	240.25
785.80	240.25
786.12	240.24
786.45	240.20
786.77	240.13
787.09	240.11
787.42	240.00
787.74	239.96
788.06	239.94
788.38	239.80
788.71	239.82
789.03	239.76
789.35	239.74
789.67	239.59
789.99	239.55
790.32	239.51
790.64	239.54
790.96	239.72
791.28	239.64
791.61	239.61
791.93	239.59
792.25	239.58
792.57	239.74
792.89	239.60
793.21	239.56
793.54	239.48
793.86	239.42
794.18	239.41
794.50	239.34
794.82	239.26
795.14	239.27
795.47	239.31
795.79	239.29
796.11	239.20
796.43	239.21
796.75	239.21
797.07	239.21
797.39	239.20
797.71	239.00
798.04	239.02
798.36	239.02
798.68	238.98
799.00	238.97
799.32	238.79
799.64	238.87
799.96	238.90
800.28	238.96
800.60	238.93
800.92	238.93
801.24	238.89
801.56	238.91
801.89	238.90
802.21	238.87
802.53	238.86
802.85	238.88
803.17	238.94
803.49	238.88
803.81	238.84
804.13	238.76
804.45	238.69
804.77	238.64
805.09	238.67
805.41	238.63
805.73	238.57
806.05	238.55
806.37	238.53
806.69	238.43
807.01	238.40
807.33	238.39
807.65	238.27
807.97	238.34
808.28	238.29
808.60	238.27
808.92	238.21
809.24	238.28
809.56	238.28
809.88	238.21
810.20	238.23
810.52	238.20
810.84	238.13
811.16	238.12
811.48	238.08
811.80	238.17
812.12	238.23
812.43	238.28
812.75	238.30
813.07	238.19
813.39	238.16
813.71	238.10
814.03	238.09
814.35	238.15
814.67	238.08
814.98	238.07
815.30	238.07
815.62	238.02
815.94	237.85
816.26	237.83
816.58	237.79
816.89	237.72
817.21	237.66
817.53	237.71
817.85	237.69
818.17	237.72
818.48	237.57
818.80	237.55
819.12	237.48
819.44	237.36
819.76	237.34
820.07	237.43
820.39	237.42
820.71	237.43
821.03	237.40
821.34	237.35
821.66	237.39
821.98	237.35
822.30	237.28
822.61	237.40
822.93	237.35
823.25	237.27
823.57	237.26
823.88	237.34
824.20	237.30
824.52	237.38
824.83	237.34
825.15	237.34
825.47	237.29
825.79	237.31
826.10	237.35
826.42	237.34
826.74	237.38
827.05	237.37
827.37	237.34
827.69	237.25
828.00	237.32
828.32	237.28
828.64	237.21
828.95	237.41
829.27	237.36
829.58	237.37
829.90	237.48
830.22	237.56
830.53	237.51
830.85	237.54
831.17	237.40
831.48	237.37
831.80	237.35
832.11	237.27
832.43	237.21
832.75	237.15
833.06	237.21
833.38	237.05
833.69	237.06
834.01	237.09
834.32	237.17
834.64	237.07
834.96	237.04
835.27	237.05
835.59	236.98
835.90	236.94
836.22	236.98
836.53	236.94
836.85	236.88
837.16	237.08
837.48	237.06
837.79	237.21
838.11	237.21
838.42	237.20
838.74	237.27
839.05	237.27
839.37	237.30
839.68	237.20
840.00	237.23
840.31	237.21
840.63	237.17
840.94	237.10
841.26	237.19
841.57	237.21
841.88	237.23
842.20	237.08
842.51	236.99
842.83	236.95
843.14	237.10
843.46	237.10
843.77	236.98
844.08	236.95
844.40	236.85
844.71	236.82
845.03	236.81
845.34	236.78
845.65	236.76
845.97	236.73
846.28	236.74
846.60	236.73
846.91	236.73
847.22	236.71
847.54	236.73
847.85	236.65
848.16	236.55
848.48	236.47
848.79	236.60
849.10	236.66
849.42	236.62
849.73	236.39
850.04	236.34
850.36	236.19
850.67	236.23
850.98	236.20
851.30	236.19
851.61	236.18
851.92	236.22
852.23	236.27
852.55	236.27
852.86	236.28
853.17	236.32
853.49	236.32
853.80	236.40
854.11	236.47
854.42	236.49
854.74	236.51
855.05	236.54
855.36	236.48
855.67	236.45
855.99	236.47
856.30	236.72
856.61	236.72
856.92	236.73
857.23	236.73
857.55	236.74
857.86	236.73
858.17	236.76
858.48	236.69
858.79	236.65
859.11	236.70
859.42	236.63
859.73	236.57
860.04	236.58
860.35	236.49
860.66	236.36
860.98	236.38
861.29	236.41
861.60	236.41
861.91	236.47
862.22	236.48
862.53	236.45
862.84	236.22
863.16	236.28
863.47	236.30
863.78	236.28
864.09	236.31
864.40	236.32
864.71	236.26
865.02	236.30
865.33	236.30
865.64	236.24
865.95	236.27
866.27	236.40
866.58	236.36
866.89	236.39
867.20	236.39
867.51	236.33
867.82	236.29
868.13	236.38
868.44	236.32
868.75	236.38
869.06	236.40
869.37	236.39
869.68	236.34
869.99	236.36
870.30	236.31
870.61	236.31
870.92	236.30
871.23	236.30
871.54	236.32
871.85	236.37
872.16	236.41
872.47	236.42
872.78	236.33
873.09	236.31
873.40	236.31
873.71	236.34
874.02	236.39
874.33	236.40
874.64	236.42
874.95	236.44
875.26	236.31
875.56	236.30
875.87	236.31
876.18	236.31
876.49	236.53
876.80	236.55
877.11	236.46
877.42	236.48
877.73	236.55
878.04	236.53
878.35	236.50
878.66	236.47
878.96	236.46
879.27	236.43
879.58	236.50
879.89	236.43
880.20	236.46
880.51	236.43
880.82	236.38
881.12	236.30
881.43	236.19
881.74	236.23
882.05	236.22
882.36	236.23
882.67	236.21
882.97	235.96
883.28	235.95
883.59	236.01
883.90	236.02
884.21	236.00
884.51	236.01
884.82	236.03
885.13	236.02
885.44	236.03
885.74	236.03
886.05	235.99
886.36	236.00
886.67	235.95
886.98	236.05
887.28	236.09
887.59	236.15
887.90	236.22
888.20	236.15
888.51	236.21
888.82	236.22
889.13	236.29
889.43	236.52
889.74	236.53
890.05	236.52
890.35	236.50
890.66	236.51
890.97	236.53
891.28	236.51
891.58	236.53
891.89	236.51
892.20	236.47
892.50	236.45
892.81	236.53
893.12	236.55
893.42	236.47
893.73	236.54
894.04	236.50
894.34	236.52
894.65	236.58
894.95	236.54
895.26	236.57
895.57	236.64
895.87	236.42
896.18	236.46
896.48	236.47
896.79	236.46
897.10	236.47
897.40	236.45
897.71	236.41
898.01	236.43
898.32	236.47
898.63	236.52
898.93	236.55
899.24	236.51
899.54	236.47
899.85	236.45
900.15	236.43
900.46	236.42
900.76	236.45
901.07	236.46
901.38	236.43
901.68	236.42
901.99	236.31
902.29	236.36
902.60	236.28
902.90	236.27
903.21	236.29
903.51	236.30
903.82	236.36
904.12	236.38
904.43	236.39
904.73	236.41
905.03	236.37
905.34	236.65
905.64	236.65
905.95	236.69
906.25	236.73
906.56	236.72
906.86	236.72
907.17	236.68
907.47	236.70
907.77	236.73
908.08	236.74
908.38	236.76
908.69	236.74
908.99	236.82
909.30	236.87
909.60	236.86
909.90	236.89
910.21	236.80
910.51	236.83
910.81	236.84
911.12	236.84
911.42	236.90
911.73	236.63
912.03	236.66
912.33	236.68
912.64	236.65
912.94	236.63
913.24	236.67
913.55	236.65
913.85	236.66
914.15	236.73
914.46	236.73
914.76	236.71
915.06	236.70
915.37	236.65
915.67	236.59
915.97	236.61
916.27	236.55
916.58	236.57
916.88	236.49
917.18	236.49
917.49	236.64
917.79	236.57
918.09	236.56
918.39	236.55
918.70	236.57
919.00	236.56
919.30	236.59
919.60	236.50
919.91	236.48
920.21	236.41
920.51	236.34
920.81	236.34
921.12	236.38
921.42	236.39
921.72	236.42
922.02	236.45
922.32	236.47
922.63	236.46
922.93	236.59
923.23	236.67
923.53	236.64
923.83	236.52
924.13	236.54
924.44	236.62
924.74	236.65
925.04	236.69
925.34	236.71
925.64	236.65
925.94	236.67
926.24	236.80
926.55	236.83
926.85	236.78
927.15	236.78
927.45	236.83
927.75	236.81
928.05	236.84
928.35	236.83
928.65	236.90
928.95	236.93
929.26	236.83
929.56	236.83
929.86	236.83
930.16	236.76
930.46	236.81
930.76	236.75
931.06	236.67
931.36	236.60
931.66	236.60
931.96	236.64
932.26	236.68
932.56	236.64
932.86	236.61
933.16	236.67
933.46	236.61
933.76	236.50
934.06	236.53
934.36	236.54
934.66	236.54
934.96	236.41
935.26	236.39
935.56	236.43
935.86	236.35
936.16	236.33
936.46	236.36
936.76	236.31
937.06	236.29
937.36	236.27
937.66	236.25
937.96	236.31
938.26	236.28
938.56	236.25
938.86	236.22
939.16	236.35
939.46	236.34
939.76	236.36
940.06	236.35
940.35	236.37
940.65	236.30
940.95	236.32
941.25	236.34
941.55	236.32
941.85	236.25
942.15	236.34
942.45	236.41
942.75	236.35
943.04	236.34
943.34	236.39
943.64	236.39
943.94	236.42
944.24	236.38
944.54	236.35
944.84	236.37
945.13	236.37
945.43	236.29
945.73	236.28
946.03	236.31
946.33	236.31
946.62	236.23
946.92	236.22
947.22	236.12
947.52	236.14
947.82	236.15
948.11	236.17
948.41	236.16
948.71	236.05
949.01	236.10
949.31	236.10
949.60	236.12
949.90	236.15
950.20	236.12
950.50	236.10
950.79	236.18
951.09	236.20
951.39	236.20
951.69	236.15
951.98	236.22
952.28	236.22
952.58	236.25
952.87	236.22
953.17	236.25
953.47	236.32
953.76	236.30
954.06	236.31
954.36	236.26
954.66	236.20
954.95	236.28
955.25	236.27
955.55	236.30
955.84	236.21
956.14	236.23
956.44	236.18
956.73	236.13
957.03	236.07
957.32	236.09
957.62	235.99
957.92	236.05
958.21	235.94
958.51	236.12
958.81	236.07
959.10	236.14
959.40	236.19
959.69	236.14
959.99	236.18
960.29	236.17
960.58	236.15
960.88	236.23
961.17	236.16
961.47	236.13
961.76	236.07
962.06	236.13
962.36	236.12
962.65	236.16
962.95	236.17
963.24	236.12
963.54	236.10
963.83	236.18
964.13	236.16
964.42	236.15
964.72	236.02
965.01	236.05
965.31	236.02
965.60	235.96
965.90	236.15
966.19	236.12
966.49	236.16
966.78	236.13
967.08	236.08
967.37	236.14
967.67	236.18
967.96	236.21
968.26	236.18
968.55	236.19
968.85	236.16
969.14	236.17
969.43	236.18
969.73	236.10
970.02	236.03
970.32	235.97
970.61	235.99
970.91	235.91
971.20	235.90
971.49	235.88
971.79	235.90
972.08	235.71
972.38	235.72
972.67	235.61
972.96	235.70
973.26	235.73
973.55	235.74
973.85	235.76
974.14	235.70
974.43	235.77
974.73	235.76
975.02	235.77
975.31	235.79
975.61	235.82
975.90	235.87
976.19	235.91
976.49	235.95
976.78	235.97
977.07	236.00
977.37	236.00
977.66	236.01
977.95	235.98
978.24	236.01
978.54	236.03
978.83	236.08
979.12	236.05
979.42	236.04
979.71	236.04
980.00	236.03
980.29	236.14
980.59	236.11
980.88	236.13
981.17	236.13
981.46	236.10
981.76	236.13
982.05	236.15
982.34	236.14
982.63	236.20
982.93	236.19
983.22	236.28
983.51	236.31
983.80	236.39
984.09	236.44
984.39	236.44
984.68	236.40
984.97	236.44
985.26	236.41
985.55	236.42
985.85	236.38
986.14	236.40
986.43	236.43
986.72	236.40
987.01	236.41
987.30	236.43
987.59	236.44
987.89	236.43
988.18	236.39
988.47	236.40
988.76	236.39
989.05	236.34
989.34	236.27
989.63	236.31
989.92	236.31
990.22	236.28
990.51	236.28
990.80	236.27
991.09	236.22
991.38	236.25
991.67	236.23
991.96	236.18
992.25	236.13
992.54	236.04
992.83	236.04
993.12	236.01
993.41	236.03
993.70	236.12
993.99	236.23
994.28	236.24
994.58	236.21
994.87	236.17
995.16	236.19
995.45	236.20
995.74	236.12
996.03	236.12
996.32	236.12
996.61	236.11
996.90	236.20
997.19	236.21
997.48	236.20
997.77	236.19
998.06	236.25
998.34	236.22
998.63	236.23
998.92	236.25
999.21	236.25
999.50	236.27
999.79	236.21
1000.08	236.16
1000.37	236.20
1000.66	236.24
1000.95	236.25
1001.24	236.27
1001.53	236.28
1001.82	236.27
1002.11	236.17
1002.40	236.20
1002.68	236.23
1002.97	236.30
1003.26	236.30
1003.55	236.27
1003.84	236.22
1004.13	236.28
1004.42	236.32
1004.71	236.27
1004.99	236.20
1005.28	236.27
1005.57	236.23
1005.86	236.19
1006.15	236.19
1006.44	236.10
1006.72	236.14
1007.01	236.13
1007.30	236.13
1007.59	236.10
1007.88	236.14
1008.17	236.19
1008.45	236.16
1008.74	236.12
1009.03	236.06
1009.32	236.06
1009.60	236.07
1009.89	236.09
1010.18	236.00
1010.47	235.99
1010.76	236.03
1011.04	236.11
1011.33	236.04
1011.62	236.08
1011.91	236.12
1012.19	236.09
1012.48	236.15
1012.77	236.09
1013.05	236.14
1013.34	236.12
1013.63	236.09
1013.92	236.09
1014.20	236.07
1014.49	236.09
1014.78	236.14
1015.06	236.03
1015.35	236.00
1015.64	236.06
1015.92	236.10
1016.21	236.11
1016.50	236.14
1016.78	236.17
1017.07	236.15
1017.36	236.20
1017.64	236.13
1017.93	236.12
1018.22	236.07
1018.50	236.03
1018.79	236.03
1019.08	236.05
1019.36	236.09
1019.65	236.11
1019.93	236.18
1020.22	236.24
1020.51	236.38
1020.79	236.36
1021.08	235.07
1021.36	235.43
1021.65	235.93
1021.94	237.33
1022.22	236.17
1022.51	236.03
1022.79	237.60
1023.08	237.03
1023.36	239.77
1023.65	236.37
>>>>>End Processed Spectral Data<<<<<
