SpectraSuite Data File
++++++++++++++++++++++++++++++++++++
Date: Mon Oct 22 15:13:39 EDT 2012
User: group
Dark Spectrum Present: No
Reference Spectrum Present: No
Number of Sampled Component Spectra: 1
Spectrometers: USB2E7196
Integration Time (usec): 91000 (USB2E7196)
Spectra Averaged: 30 (USB2E7196)
Boxcar Smoothing: 10 (USB2E7196)
Correct for Electrical Dark: No (USB2E7196)
Strobe/Lamp Enabled: No (USB2E7196)
Correct for Detector Non-linearity: No (USB2E7196)
Correct for Stray Light: No (USB2E7196)
Number of Pixels in Processed Spectrum: 2048
>>>>>Begin Processed Spectral Data<<<<<
339.09	0.00
339.48	223.30
339.86	225.70
340.24	226.60
340.63	228.43
341.01	232.87
341.39	230.50
341.78	231.97
342.16	233.90
342.54	233.33
342.93	222.12
343.31	233.40
343.69	233.94
344.07	234.40
344.46	234.84
344.84	235.24
345.22	235.38
345.60	235.65
345.99	235.86
346.37	235.99
346.75	236.13
347.13	236.18
347.52	236.25
347.90	236.35
348.28	236.40
348.66	236.54
349.05	236.53
349.43	236.59
349.81	236.67
350.19	236.73
350.57	236.85
350.96	236.88
351.34	236.90
351.72	237.05
352.10	237.14
352.48	237.21
352.87	237.22
353.25	237.30
353.63	237.39
354.01	237.46
354.39	237.58
354.77	237.66
355.15	237.83
355.54	237.88
355.92	237.87
356.30	238.04
356.68	238.22
357.06	238.31
357.44	238.31
357.82	238.42
358.20	238.56
358.58	238.59
358.97	238.74
359.35	238.90
359.73	238.97
360.11	239.06
360.49	239.16
360.87	239.28
361.25	239.45
361.63	239.53
362.01	239.61
362.39	239.59
362.77	239.68
363.15	239.68
363.53	239.69
363.91	239.70
364.29	239.67
364.67	239.46
365.05	239.51
365.43	239.60
365.81	239.54
366.19	239.63
366.57	239.68
366.95	239.61
367.33	239.54
367.71	239.56
368.09	239.62
368.47	239.62
368.85	239.57
369.23	239.51
369.61	239.51
369.99	239.54
370.37	239.54
370.75	239.58
371.13	239.51
371.51	239.47
371.89	239.51
372.27	239.47
372.65	239.48
373.03	239.46
373.41	239.42
373.78	239.37
374.16	239.23
374.54	239.16
374.92	239.08
375.30	239.07
375.68	238.92
376.06	238.78
376.44	238.71
376.82	238.67
377.19	238.61
377.57	238.49
377.95	238.37
378.33	238.33
378.71	238.22
379.09	238.20
379.47	238.23
379.84	238.19
380.22	238.03
380.60	237.95
380.98	237.81
381.36	237.75
381.73	237.74
382.11	237.66
382.49	237.55
382.87	237.51
383.25	237.42
383.62	237.66
384.00	237.59
384.38	237.50
384.76	237.48
385.13	237.49
385.51	237.40
385.89	237.32
386.27	237.24
386.64	237.15
387.02	237.05
387.40	236.96
387.78	236.80
388.15	236.84
388.53	236.84
388.91	236.81
389.29	236.70
389.66	236.67
390.04	236.63
390.42	236.67
390.79	236.64
391.17	236.57
391.55	236.30
391.92	236.34
392.30	236.36
392.68	236.32
393.05	236.34
393.43	236.34
393.81	236.35
394.18	236.39
394.56	236.41
394.94	236.50
395.31	236.51
395.69	236.59
396.06	236.64
396.44	236.64
396.82	236.65
397.19	236.84
397.57	236.88
397.95	236.96
398.32	236.98
398.70	237.06
399.07	237.18
399.45	237.25
399.82	237.35
400.20	237.40
400.58	237.46
400.95	237.40
401.33	237.62
401.70	237.87
402.08	237.96
402.45	238.09
402.83	238.28
403.20	238.45
403.58	238.56
403.95	238.73
404.33	238.95
404.71	239.15
405.08	239.46
405.46	239.70
405.83	239.94
406.21	240.17
406.58	240.47
406.96	240.81
407.33	241.22
407.70	241.60
408.08	242.24
408.45	242.71
408.83	243.27
409.20	243.68
409.58	244.16
409.95	244.74
410.33	245.41
410.70	246.00
411.08	246.68
411.45	247.50
411.82	248.31
412.20	249.28
412.57	250.40
412.95	251.24
413.32	252.35
413.69	253.65
414.07	254.91
414.44	256.35
414.82	257.76
415.19	259.35
415.56	261.02
415.94	262.74
416.31	264.82
416.68	266.75
417.06	269.03
417.43	271.18
417.81	273.68
418.18	276.24
418.55	278.92
418.93	281.86
419.30	285.00
419.67	288.17
420.04	291.41
420.42	294.87
420.79	298.88
421.16	302.87
421.54	306.95
421.91	311.28
422.28	315.72
422.66	320.52
423.03	325.20
423.40	330.10
423.77	335.33
424.15	340.73
424.52	346.41
424.89	352.63
425.26	358.71
425.64	364.43
426.01	370.66
426.38	377.28
426.75	383.89
427.13	390.87
427.50	398.23
427.87	406.01
428.24	413.76
428.61	421.25
428.99	429.37
429.36	438.24
429.73	446.99
430.10	455.80
430.47	464.91
430.85	474.42
431.22	484.53
431.59	494.94
431.96	505.06
432.33	516.41
432.70	527.36
433.08	540.02
433.45	552.21
433.82	564.32
434.19	577.96
434.56	591.33
434.93	604.01
435.30	616.83
435.68	630.97
436.05	644.92
436.42	658.94
436.79	671.76
437.16	685.82
437.53	700.47
437.90	715.09
438.27	729.55
438.64	744.40
439.01	758.08
439.38	770.77
439.75	782.88
440.13	796.40
440.50	809.23
440.87	819.98
441.24	831.04
441.61	843.26
441.98	852.41
442.35	862.99
442.72	873.61
443.09	883.89
443.46	890.17
443.83	894.63
444.20	898.47
444.57	904.02
444.94	906.51
445.31	909.26
445.68	911.53
446.05	912.53
446.42	911.57
446.79	910.41
447.16	908.68
447.53	907.39
447.90	902.37
448.27	897.26
448.64	890.13
449.01	884.77
449.37	875.39
449.74	866.35
450.11	855.30
450.48	843.63
450.85	831.71
451.22	821.52
451.59	811.88
451.96	802.68
452.33	790.47
452.70	779.45
453.07	766.37
453.43	753.18
453.80	740.28
454.17	727.73
454.54	715.96
454.91	703.54
455.28	691.50
455.65	680.27
456.02	668.89
456.38	659.35
456.75	647.54
457.12	637.88
457.49	628.05
457.86	618.87
458.23	610.68
458.59	601.72
458.96	592.88
459.33	585.01
459.70	576.94
460.07	570.44
460.43	563.04
460.80	556.05
461.17	549.87
461.54	543.66
461.91	537.75
462.27	531.52
462.64	526.27
463.01	520.47
463.38	514.84
463.74	509.47
464.11	504.66
464.48	500.35
464.85	495.66
465.21	492.13
465.58	488.30
465.95	483.86
466.32	480.16
466.68	476.33
467.05	472.49
467.42	468.74
467.78	464.84
468.15	461.13
468.52	458.36
468.88	454.97
469.25	451.75
469.62	449.16
469.98	446.51
470.35	444.00
470.72	441.61
471.08	439.02
471.45	436.76
471.82	434.32
472.18	431.93
472.55	430.25
472.92	428.23
473.28	426.45
473.65	424.66
474.02	422.88
474.38	421.43
474.75	420.22
475.11	418.99
475.48	418.00
475.85	417.29
476.21	416.42
476.58	415.61
476.94	415.14
477.31	414.57
477.67	413.89
478.04	413.52
478.41	413.27
478.77	413.28
479.14	413.03
479.50	413.20
479.87	413.50
480.23	413.71
480.60	413.86
480.96	414.10
481.33	414.88
481.69	415.51
482.06	416.10
482.42	416.61
482.79	417.33
483.15	418.37
483.52	419.57
483.88	420.65
484.25	421.82
484.61	423.04
484.98	424.24
485.34	425.89
485.71	427.49
486.07	429.27
486.44	430.87
486.80	432.83
487.17	434.83
487.53	436.95
487.90	439.19
488.26	441.60
488.62	444.16
488.99	446.51
489.35	449.10
489.72	451.97
490.08	455.07
490.44	458.16
490.81	461.28
491.17	464.43
491.54	468.00
491.90	471.61
492.26	475.33
492.63	479.29
492.99	483.13
493.36	487.12
493.72	491.41
494.08	495.67
494.45	500.12
494.81	504.63
495.17	509.26
495.54	514.13
495.90	519.19
496.26	524.20
496.63	529.33
496.99	534.71
497.35	540.17
497.72	545.74
498.08	551.23
498.44	556.86
498.80	562.80
499.17	568.73
499.53	574.69
499.89	580.77
500.26	586.82
500.62	592.96
500.98	599.41
501.34	605.65
501.71	612.38
502.07	618.94
502.43	625.66
502.79	632.22
503.16	638.84
503.52	645.51
503.88	652.36
504.24	659.02
504.60	665.55
504.97	672.20
505.33	678.76
505.69	685.91
506.05	692.90
506.41	699.59
506.78	706.15
507.14	712.93
507.50	719.61
507.86	726.17
508.22	732.93
508.59	739.20
508.95	745.68
509.31	752.06
509.67	758.35
510.03	764.27
510.39	770.44
510.75	776.43
511.12	782.19
511.48	787.79
511.84	793.62
512.20	799.23
512.56	804.67
512.92	809.95
513.28	815.10
513.64	819.82
514.00	824.56
514.37	829.14
514.73	833.42
515.09	837.60
515.45	841.81
515.81	845.66
516.17	849.55
516.53	853.10
516.89	856.38
517.25	859.59
517.61	862.99
517.97	865.97
518.33	868.51
518.69	871.09
519.05	873.46
519.41	875.63
519.77	877.94
520.13	879.84
520.49	881.85
520.85	883.29
521.21	885.06
521.57	886.67
521.93	887.71
522.29	888.85
522.65	889.74
523.01	890.48
523.37	891.01
523.73	891.68
524.09	891.99
524.45	892.07
524.81	892.30
525.17	892.12
525.53	891.95
525.89	891.96
526.25	891.91
526.61	891.58
526.97	891.25
527.33	891.02
527.68	890.94
528.04	890.50
528.40	889.73
528.76	889.00
529.12	888.16
529.48	887.66
529.84	886.85
530.20	886.14
530.56	885.28
530.91	884.78
531.27	884.04
531.63	883.63
531.99	883.17
532.35	882.05
532.71	881.32
533.07	880.69
533.42	880.06
533.78	879.19
534.14	878.54
534.50	877.77
534.86	876.97
535.21	875.83
535.57	874.98
535.93	874.24
536.29	873.53
536.65	873.11
537.00	872.56
537.36	872.34
537.72	871.88
538.08	871.63
538.44	870.96
538.79	870.49
539.15	869.71
539.51	869.43
539.87	869.62
540.22	869.18
540.58	868.94
540.94	868.54
541.29	868.22
541.65	867.93
542.01	867.84
542.37	867.52
542.72	867.34
543.08	866.96
543.44	866.97
543.79	866.69
544.15	866.31
544.51	866.20
544.87	865.83
545.22	865.85
545.58	865.75
545.94	865.79
546.29	865.38
546.65	864.99
547.01	864.54
547.36	864.25
547.72	864.36
548.07	864.24
548.43	864.23
548.79	864.31
549.14	864.40
549.50	864.53
549.86	864.75
550.21	864.98
550.57	865.49
550.92	865.71
551.28	865.87
551.64	866.12
551.99	866.35
552.35	866.55
552.70	866.82
553.06	867.07
553.41	867.29
553.77	867.97
554.13	868.67
554.48	869.43
554.84	869.94
555.19	870.69
555.55	871.81
555.90	872.67
556.26	873.53
556.61	874.40
556.97	874.89
557.32	875.69
557.68	876.76
558.03	877.68
558.39	878.66
558.74	879.97
559.10	881.05
559.45	882.16
559.81	883.70
560.16	884.76
560.52	886.11
560.87	887.86
561.23	889.31
561.58	891.33
561.94	892.87
562.29	894.25
562.64	895.87
563.00	897.08
563.35	898.33
563.71	899.86
564.06	901.24
564.42	902.58
564.77	903.64
565.12	904.80
565.48	906.37
565.83	907.97
566.19	909.73
566.54	911.29
566.89	912.68
567.25	913.93
567.60	915.47
567.96	916.78
568.31	917.73
568.66	918.68
569.02	919.43
569.37	920.27
569.72	921.24
570.08	921.63
570.43	922.25
570.78	923.14
571.14	923.66
571.49	924.21
571.84	925.26
572.20	926.24
572.55	927.34
572.90	927.76
573.26	928.22
573.61	928.29
573.96	928.33
574.31	928.37
574.67	928.15
575.02	928.10
575.37	928.10
575.72	927.93
576.08	928.09
576.43	928.11
576.78	928.16
577.13	928.35
577.49	928.58
577.84	928.76
578.19	928.88
578.54	928.83
578.90	928.93
579.25	928.58
579.60	928.08
579.95	927.11
580.30	926.84
580.66	926.51
581.01	926.29
581.36	926.00
581.71	925.82
582.06	925.80
582.42	925.43
582.77	924.76
583.12	924.43
583.47	924.02
583.82	923.37
584.17	922.43
584.53	921.58
584.88	920.81
585.23	919.97
585.58	919.00
585.93	917.97
586.28	916.96
586.63	916.06
586.98	915.10
587.34	914.36
587.69	912.79
588.04	911.37
588.39	909.79
588.74	908.06
589.09	906.61
589.44	905.03
589.79	903.64
590.14	902.30
590.49	900.52
590.84	898.69
591.19	897.07
591.54	895.48
591.89	893.35
592.25	891.33
592.60	888.97
592.95	886.67
593.30	884.69
593.65	882.65
594.00	880.49
594.35	879.39
594.70	877.40
595.05	875.75
595.40	873.67
595.75	871.56
596.10	869.89
596.45	867.73
596.80	865.40
597.15	862.87
597.50	860.60
597.85	858.79
598.19	856.68
598.54	854.13
598.89	851.82
599.24	850.09
599.59	847.99
599.94	846.14
600.29	844.22
600.64	841.99
600.99	839.70
601.34	837.48
601.69	834.19
602.04	831.71
602.39	829.04
602.74	826.72
603.08	824.35
603.43	822.06
603.78	819.87
604.13	817.84
604.48	815.87
604.83	813.86
605.18	811.64
605.53	809.58
605.87	807.90
606.22	806.71
606.57	805.34
606.92	804.25
607.27	803.31
607.62	802.24
607.96	801.29
608.31	800.03
608.66	798.74
609.01	797.32
609.36	795.71
609.70	794.05
610.05	792.24
610.40	790.56
610.75	788.52
611.10	786.49
611.44	784.12
611.79	781.82
612.14	779.41
612.49	776.62
612.83	773.76
613.18	770.74
613.53	767.10
613.88	763.23
614.22	759.21
614.57	754.74
614.92	750.39
615.27	746.31
615.61	742.50
615.96	738.68
616.31	735.04
616.65	731.41
617.00	728.01
617.35	724.77
617.70	721.46
618.04	718.13
618.39	714.89
618.74	712.03
619.08	708.81
619.43	705.53
619.78	702.40
620.12	699.40
620.47	696.55
620.82	693.74
621.16	690.87
621.51	688.19
621.85	685.64
622.20	683.07
622.55	680.22
622.89	677.63
623.24	675.07
623.59	672.41
623.93	669.73
624.28	666.93
624.62	664.18
624.97	661.22
625.32	658.36
625.66	655.46
626.01	652.58
626.35	650.10
626.70	647.51
627.04	645.33
627.39	642.76
627.73	640.17
628.08	637.39
628.43	634.71
628.77	631.95
629.12	629.21
629.46	626.57
629.81	623.86
630.15	620.92
630.50	618.07
630.84	615.39
631.19	612.77
631.53	610.04
631.88	607.18
632.22	604.62
632.57	602.17
632.91	599.57
633.26	596.82
633.60	593.77
633.95	590.83
634.29	587.68
634.64	584.81
634.98	581.85
635.32	579.10
635.67	576.58
636.01	573.95
636.36	571.15
636.70	568.46
637.05	565.84
637.39	563.22
637.73	560.56
638.08	557.91
638.42	555.40
638.77	552.98
639.11	550.54
639.45	548.05
639.80	545.50
640.14	543.06
640.49	540.63
640.83	538.39
641.17	536.19
641.52	534.05
641.86	531.85
642.20	529.74
642.55	527.66
642.89	525.47
643.23	523.29
643.58	521.49
643.92	519.35
644.26	517.13
644.61	515.06
644.95	513.00
645.29	510.85
645.64	508.77
645.98	506.84
646.32	504.77
646.66	502.54
647.01	500.35
647.35	498.47
647.69	496.52
648.04	494.56
648.38	492.53
648.72	490.38
649.06	488.28
649.41	486.17
649.75	484.10
650.09	482.06
650.43	480.13
650.78	477.77
651.12	475.74
651.46	473.92
651.80	471.99
652.14	470.08
652.49	468.33
652.83	466.18
653.17	463.88
653.51	461.78
653.85	459.87
654.20	457.89
654.54	455.80
654.88	453.73
655.22	451.72
655.56	449.87
655.90	448.10
656.25	446.33
656.59	444.51
656.93	442.55
657.27	440.77
657.61	438.81
657.95	437.30
658.29	435.51
658.64	433.69
658.98	431.80
659.32	429.86
659.66	427.96
660.00	426.25
660.34	424.56
660.68	422.83
661.02	420.93
661.36	419.32
661.70	417.54
662.05	415.90
662.39	414.34
662.73	412.63
663.07	410.90
663.41	409.14
663.75	407.54
664.09	406.00
664.43	404.27
664.77	402.69
665.11	400.88
665.45	399.23
665.79	397.62
666.13	396.11
666.47	394.58
666.81	393.12
667.15	391.48
667.49	390.04
667.83	388.59
668.17	387.22
668.51	385.73
668.85	384.32
669.19	382.97
669.53	381.43
669.87	379.94
670.21	378.62
670.55	377.35
670.89	376.09
671.23	374.73
671.57	373.40
671.91	372.13
672.25	370.92
672.58	369.69
672.92	368.37
673.26	367.09
673.60	365.86
673.94	364.47
674.28	363.39
674.62	362.23
674.96	361.03
675.30	359.88
675.64	358.68
675.97	357.55
676.31	356.31
676.65	355.13
676.99	354.15
677.33	353.02
677.67	351.90
678.01	350.66
678.34	349.62
678.68	348.58
679.02	347.47
679.36	346.45
679.70	345.42
680.04	344.40
680.37	343.28
680.71	342.16
681.05	341.23
681.39	340.24
681.73	339.17
682.06	338.19
682.40	337.33
682.74	336.49
683.08	335.60
683.42	334.70
683.75	333.90
684.09	332.90
684.43	331.96
684.77	330.93
685.10	330.03
685.44	329.05
685.78	328.08
686.12	327.20
686.45	326.24
686.79	325.35
687.13	324.55
687.46	323.79
687.80	323.08
688.14	322.18
688.48	321.38
688.81	320.52
689.15	319.80
689.49	318.85
689.82	317.97
690.16	317.07
690.50	316.25
690.83	315.35
691.17	314.41
691.51	313.61
691.84	312.89
692.18	311.97
692.52	311.19
692.85	310.54
693.19	309.79
693.52	309.01
693.86	308.26
694.20	307.55
694.53	306.82
694.87	306.08
695.21	305.37
695.54	304.56
695.88	303.83
696.21	302.91
696.55	302.21
696.88	301.50
697.22	300.79
697.56	300.19
697.89	299.52
698.23	299.02
698.56	298.40
698.90	297.83
699.23	297.30
699.57	296.73
699.90	296.07
700.24	295.56
700.58	295.02
700.91	294.50
701.25	294.08
701.58	293.63
701.92	293.14
702.25	292.57
702.59	292.08
702.92	291.69
703.26	291.34
703.59	290.94
703.93	290.68
704.26	290.25
704.60	289.72
704.93	289.32
705.26	288.82
705.60	288.36
705.93	287.77
706.27	287.36
706.60	286.93
706.94	286.53
707.27	285.94
707.61	285.53
707.94	285.09
708.27	284.48
708.61	283.95
708.94	283.50
709.28	283.15
709.61	282.68
709.94	282.18
710.28	281.62
710.61	281.14
710.95	280.35
711.28	279.95
711.61	279.40
711.95	278.93
712.28	278.36
712.61	277.82
712.95	277.49
713.28	277.09
713.61	276.56
713.95	276.03
714.28	275.59
714.61	275.03
714.95	274.52
715.28	273.96
715.61	273.43
715.95	272.93
716.28	272.44
716.61	272.07
716.95	271.58
717.28	271.17
717.61	270.71
717.94	270.42
718.28	269.95
718.61	269.69
718.94	269.30
719.27	268.99
719.61	268.68
719.94	268.35
720.27	267.90
720.60	267.54
720.94	267.17
721.27	266.85
721.60	266.60
721.93	266.27
722.27	266.10
722.60	265.83
722.93	265.46
723.26	265.15
723.59	264.85
723.93	264.67
724.26	264.37
724.59	264.08
724.92	263.82
725.25	263.57
725.59	263.22
725.92	262.95
726.25	262.73
726.58	262.44
726.91	262.12
727.24	261.93
727.57	261.65
727.91	261.41
728.24	261.23
728.57	260.92
728.90	260.72
729.23	260.38
729.56	260.24
729.89	260.08
730.22	259.86
730.55	259.59
730.89	259.33
731.22	259.12
731.55	258.91
731.88	258.67
732.21	258.40
732.54	258.20
732.87	257.99
733.20	257.70
733.53	257.49
733.86	257.22
734.19	256.98
734.52	256.82
734.85	256.81
735.18	256.48
735.51	256.38
735.84	256.20
736.17	256.10
736.50	255.86
736.83	255.82
737.16	255.64
737.49	255.50
737.82	255.24
738.15	255.07
738.48	254.89
738.81	254.66
739.14	254.51
739.47	254.25
739.80	254.08
740.13	253.98
740.46	253.78
740.79	253.65
741.12	253.47
741.45	253.28
741.78	252.90
742.11	252.87
742.44	252.60
742.77	252.44
743.10	252.25
743.43	251.99
743.75	251.65
744.08	251.74
744.41	251.48
744.74	251.31
745.07	251.16
745.40	251.03
745.73	250.91
746.06	250.76
746.39	250.70
746.71	250.47
747.04	250.22
747.37	249.99
747.70	249.84
748.03	249.62
748.36	249.49
748.68	249.39
749.01	249.12
749.34	249.08
749.67	248.94
750.00	248.75
750.33	248.79
750.65	248.73
750.98	248.28
751.31	248.21
751.64	248.16
751.97	248.11
752.29	247.95
752.62	247.79
752.95	247.64
753.28	247.47
753.60	247.38
753.93	247.36
754.26	247.34
754.59	247.18
754.91	247.13
755.24	247.02
755.57	246.85
755.90	246.79
756.22	246.69
756.55	246.49
756.88	246.36
757.20	246.10
757.53	245.91
757.86	245.84
758.19	245.76
758.51	245.65
758.84	245.46
759.17	245.36
759.49	245.32
759.82	245.32
760.15	245.22
760.47	245.13
760.80	245.00
761.13	244.98
761.45	244.87
761.78	244.77
762.11	244.71
762.43	244.66
762.76	244.60
763.08	244.52
763.41	244.48
763.74	244.41
764.06	244.36
764.39	244.33
764.71	244.22
765.04	244.09
765.37	243.96
765.69	243.90
766.02	243.81
766.34	243.68
766.67	243.56
767.00	243.47
767.32	243.55
767.65	243.62
767.97	243.50
768.30	243.51
768.62	243.48
768.95	243.36
769.27	243.24
769.60	243.13
769.92	242.98
770.25	242.95
770.57	242.83
770.90	242.75
771.22	242.61
771.55	242.58
771.87	242.49
772.20	242.40
772.52	242.47
772.85	242.71
773.17	242.68
773.50	242.57
773.82	242.51
774.15	242.29
774.47	242.11
774.80	241.98
775.12	241.81
775.45	241.67
775.77	241.60
776.09	241.59
776.42	241.52
776.74	241.57
777.07	241.47
777.39	241.49
777.72	241.46
778.04	241.46
778.36	241.33
778.69	241.38
779.01	241.36
779.33	241.09
779.66	240.75
779.98	240.68
780.31	240.66
780.63	240.73
780.95	240.76
781.28	240.69
781.60	240.67
781.92	240.66
782.25	240.66
782.57	240.59
782.89	240.50
783.22	240.49
783.54	240.37
783.86	240.32
784.19	240.29
784.51	240.22
784.83	240.13
785.16	240.15
785.48	240.05
785.80	240.00
786.12	240.05
786.45	240.00
786.77	239.99
787.09	239.90
787.42	239.79
787.74	239.76
788.06	239.67
788.38	239.61
788.71	239.60
789.03	239.56
789.35	239.58
789.67	239.60
789.99	239.53
790.32	239.54
790.64	239.60
790.96	239.68
791.28	239.61
791.61	239.61
791.93	239.62
792.25	239.60
792.57	239.76
792.89	239.69
793.21	239.73
793.54	239.67
793.86	239.63
794.18	239.62
794.50	239.58
794.82	239.58
795.14	239.64
795.47	239.67
795.79	239.61
796.11	239.53
796.43	239.47
796.75	239.48
797.07	239.40
797.39	239.36
797.71	239.19
798.04	239.17
798.36	239.19
798.68	239.19
799.00	239.26
799.32	239.11
799.64	239.06
799.96	239.04
800.28	239.04
800.60	239.04
800.92	239.06
801.24	239.03
801.56	239.02
801.89	238.97
802.21	238.90
802.53	238.91
802.85	238.94
803.17	239.01
803.49	238.94
803.81	238.95
804.13	238.87
804.45	238.85
804.77	238.88
805.09	238.84
805.41	238.75
805.73	238.64
806.05	238.60
806.37	238.60
806.69	238.53
807.01	238.55
807.33	238.59
807.65	238.52
807.97	238.50
808.28	238.53
808.60	238.51
808.92	238.51
809.24	238.60
809.56	238.56
809.88	238.42
810.20	238.42
810.52	238.38
810.84	238.36
811.16	238.33
811.48	238.25
811.80	238.27
812.12	238.22
812.43	238.27
812.75	238.21
813.07	238.12
813.39	238.11
813.71	238.02
814.03	237.91
814.35	237.85
814.67	237.74
814.98	237.63
815.30	237.61
815.62	237.55
815.94	237.38
816.26	237.36
816.58	237.39
816.89	237.38
817.21	237.33
817.53	237.32
817.85	237.27
818.17	237.30
818.48	237.26
818.80	237.27
819.12	237.19
819.44	237.18
819.76	237.22
820.07	237.17
820.39	237.18
820.71	237.20
821.03	237.16
821.34	237.17
821.66	237.21
821.98	237.20
822.30	237.11
822.61	237.25
822.93	237.21
823.25	237.11
823.57	237.09
823.88	237.18
824.20	237.20
824.52	237.29
824.83	237.28
825.15	237.17
825.47	237.17
825.79	237.13
826.10	237.15
826.42	237.13
826.74	237.20
827.05	237.16
827.37	237.16
827.69	237.16
828.00	237.15
828.32	237.12
828.64	237.10
828.95	237.27
829.27	237.16
829.58	237.18
829.90	237.23
830.22	237.17
830.53	237.00
830.85	236.90
831.17	236.81
831.48	236.79
831.80	236.86
832.11	236.84
832.43	236.87
832.75	236.84
833.06	236.98
833.38	236.92
833.69	236.90
834.01	236.85
834.32	236.86
834.64	236.83
834.96	236.85
835.27	236.80
835.59	236.73
835.90	236.75
836.22	236.79
836.53	236.79
836.85	236.87
837.16	237.17
837.48	237.22
837.79	237.31
838.11	237.31
838.42	237.30
838.74	237.33
839.05	237.34
839.37	237.30
839.68	237.13
840.00	237.17
840.31	237.18
840.63	237.19
840.94	237.17
841.26	237.13
841.57	237.18
841.88	237.21
842.20	237.19
842.51	237.10
842.83	237.09
843.14	237.27
843.46	237.22
843.77	237.07
844.08	237.01
844.40	236.94
844.71	236.91
845.03	236.86
845.34	236.83
845.65	236.76
845.97	236.78
846.28	236.81
846.60	236.79
846.91	236.80
847.22	236.85
847.54	236.91
847.85	236.99
848.16	236.97
848.48	236.97
848.79	236.97
849.10	237.00
849.42	236.96
849.73	236.79
850.04	236.82
850.36	236.80
850.67	236.90
850.98	236.84
851.30	236.89
851.61	236.88
851.92	236.90
852.23	236.94
852.55	237.01
852.86	237.04
853.17	237.07
853.49	237.14
853.80	237.16
854.11	237.14
854.42	237.14
854.74	237.04
855.05	236.99
855.36	236.91
855.67	236.98
855.99	236.98
856.30	237.12
856.61	237.10
856.92	237.05
857.23	237.00
857.55	237.05
857.86	237.04
858.17	237.12
858.48	237.07
858.79	237.00
859.11	236.94
859.42	236.89
859.73	236.81
860.04	236.74
860.35	236.67
860.66	236.60
860.98	236.61
861.29	236.67
861.60	236.68
861.91	236.71
862.22	236.67
862.53	236.69
862.84	236.49
863.16	236.53
863.47	236.52
863.78	236.46
864.09	236.48
864.40	236.46
864.71	236.40
865.02	236.38
865.33	236.41
865.64	236.38
865.95	236.39
866.27	236.50
866.58	236.53
866.89	236.53
867.20	236.58
867.51	236.49
867.82	236.51
868.13	236.58
868.44	236.56
868.75	236.54
869.06	236.51
869.37	236.58
869.68	236.53
869.99	236.56
870.30	236.64
870.61	236.69
870.92	236.67
871.23	236.66
871.54	236.73
871.85	236.80
872.16	236.84
872.47	236.83
872.78	236.78
873.09	236.77
873.40	236.79
873.71	236.75
874.02	236.80
874.33	236.75
874.64	236.70
874.95	236.77
875.26	236.78
875.56	236.79
875.87	236.74
876.18	236.77
876.49	236.97
876.80	236.96
877.11	236.85
877.42	236.90
877.73	236.92
878.04	236.94
878.35	236.92
878.66	236.89
878.96	236.89
879.27	236.86
879.58	236.81
879.89	236.77
880.20	236.86
880.51	236.85
880.82	236.85
881.12	236.85
881.43	236.76
881.74	236.74
882.05	236.69
882.36	236.70
882.67	236.66
882.97	236.52
883.28	236.48
883.59	236.43
883.90	236.42
884.21	236.47
884.51	236.44
884.82	236.41
885.13	236.43
885.44	236.47
885.74	236.47
886.05	236.50
886.36	236.49
886.67	236.41
886.98	236.51
887.28	236.57
887.59	236.65
887.90	236.74
888.20	236.72
888.51	236.78
888.82	236.78
889.13	236.84
889.43	236.97
889.74	236.94
890.05	237.01
890.35	236.98
890.66	236.92
890.97	236.88
891.28	236.89
891.58	236.89
891.89	236.95
892.20	236.92
892.50	236.85
892.81	236.88
893.12	236.91
893.42	236.83
893.73	236.79
894.04	236.78
894.34	236.77
894.65	236.74
894.95	236.70
895.26	236.72
895.57	236.77
895.87	236.50
896.18	236.55
896.48	236.58
896.79	236.59
897.10	236.65
897.40	236.63
897.71	236.60
898.01	236.53
898.32	236.43
898.63	236.42
898.93	236.47
899.24	236.46
899.54	236.41
899.85	236.35
900.15	236.30
900.46	236.23
900.76	236.21
901.07	236.21
901.38	236.24
901.68	236.29
901.99	236.21
902.29	236.23
902.60	236.22
902.90	236.16
903.21	236.16
903.51	236.10
903.82	236.18
904.12	236.20
904.43	236.19
904.73	236.24
905.03	236.26
905.34	236.47
905.64	236.43
905.95	236.48
906.25	236.55
906.56	236.63
906.86	236.70
907.17	236.72
907.47	236.75
907.77	236.71
908.08	236.64
908.38	236.65
908.69	236.67
908.99	236.70
909.30	236.77
909.60	236.77
909.90	236.86
910.21	236.81
910.51	236.79
910.81	236.89
911.12	236.86
911.42	236.83
911.73	236.64
912.03	236.63
912.33	236.64
912.64	236.61
912.94	236.55
913.24	236.45
913.55	236.45
913.85	236.46
914.15	236.49
914.46	236.48
914.76	236.47
915.06	236.50
915.37	236.45
915.67	236.42
915.97	236.39
916.27	236.28
916.58	236.26
916.88	236.30
917.18	236.23
917.49	236.37
917.79	236.36
918.09	236.36
918.39	236.43
918.70	236.45
919.00	236.45
919.30	236.60
919.60	236.58
919.91	236.53
920.21	236.51
920.51	236.45
920.81	236.44
921.12	236.49
921.42	236.52
921.72	236.58
922.02	236.58
922.32	236.65
922.63	236.71
922.93	236.81
923.23	236.79
923.53	236.74
923.83	236.64
924.13	236.63
924.44	236.58
924.74	236.60
925.04	236.61
925.34	236.60
925.64	236.42
925.94	236.42
926.24	236.50
926.55	236.49
926.85	236.54
927.15	236.50
927.45	236.48
927.75	236.40
928.05	236.34
928.35	236.30
928.65	236.36
928.95	236.34
929.26	236.27
929.56	236.32
929.86	236.41
930.16	236.35
930.46	236.37
930.76	236.45
931.06	236.37
931.36	236.33
931.66	236.35
931.96	236.40
932.26	236.43
932.56	236.32
932.86	236.32
933.16	236.33
933.46	236.37
933.76	236.35
934.06	236.50
934.36	236.57
934.66	236.54
934.96	236.45
935.26	236.43
935.56	236.45
935.86	236.39
936.16	236.31
936.46	236.27
936.76	236.23
937.06	236.17
937.36	236.23
937.66	236.23
937.96	236.27
938.26	236.29
938.56	236.32
938.86	236.42
939.16	236.50
939.46	236.47
939.76	236.47
940.06	236.36
940.35	236.25
940.65	236.19
940.95	236.24
941.25	236.17
941.55	236.17
941.85	236.16
942.15	236.19
942.45	236.28
942.75	236.29
943.04	236.26
943.34	236.32
943.64	236.26
943.94	236.26
944.24	236.17
944.54	236.16
944.84	236.14
945.13	236.10
945.43	236.06
945.73	236.10
946.03	236.10
946.33	236.18
946.62	236.19
946.92	236.20
947.22	236.25
947.52	236.29
947.82	236.36
948.11	236.34
948.41	236.30
948.71	236.26
949.01	236.28
949.31	236.37
949.60	236.35
949.90	236.38
950.20	236.38
950.50	236.44
950.79	236.35
951.09	236.40
951.39	236.34
951.69	236.32
951.98	236.35
952.28	236.42
952.58	236.41
952.87	236.40
953.17	236.45
953.47	236.42
953.76	236.44
954.06	236.40
954.36	236.38
954.66	236.38
954.95	236.44
955.25	236.48
955.55	236.48
955.84	236.42
956.14	236.40
956.44	236.41
956.73	236.34
957.03	236.41
957.32	236.37
957.62	236.39
957.92	236.43
958.21	236.39
958.51	236.59
958.81	236.57
959.10	236.60
959.40	236.58
959.69	236.58
959.99	236.63
960.29	236.63
960.58	236.61
960.88	236.73
961.17	236.77
961.47	236.78
961.76	236.69
962.06	236.74
962.36	236.78
962.65	236.79
962.95	236.83
963.24	236.87
963.54	236.91
963.83	236.91
964.13	236.88
964.42	236.84
964.72	236.69
965.01	236.72
965.31	236.71
965.60	236.63
965.90	236.75
966.19	236.63
966.49	236.64
966.78	236.66
967.08	236.57
967.37	236.55
967.67	236.51
967.96	236.65
968.26	236.67
968.55	236.67
968.85	236.67
969.14	236.73
969.43	236.68
969.73	236.65
970.02	236.70
970.32	236.71
970.61	236.72
970.91	236.58
971.20	236.60
971.49	236.61
971.79	236.64
972.08	236.49
972.38	236.56
972.67	236.60
972.96	236.65
973.26	236.69
973.55	236.67
973.85	236.66
974.14	236.58
974.43	236.60
974.73	236.60
975.02	236.52
975.31	236.50
975.61	236.50
975.90	236.47
976.19	236.42
976.49	236.46
976.78	236.49
977.07	236.52
977.37	236.49
977.66	236.51
977.95	236.49
978.24	236.46
978.54	236.51
978.83	236.40
979.12	236.34
979.42	236.27
979.71	236.30
980.00	236.25
980.29	236.33
980.59	236.33
980.88	236.42
981.17	236.40
981.46	236.32
981.76	236.29
982.05	236.39
982.34	236.37
982.63	236.32
982.93	236.27
983.22	236.30
983.51	236.33
983.80	236.34
984.09	236.44
984.39	236.44
984.68	236.38
984.97	236.44
985.26	236.40
985.55	236.47
985.85	236.37
986.14	236.47
986.43	236.43
986.72	236.36
987.01	236.20
987.30	236.21
987.59	236.21
987.89	236.25
988.18	236.15
988.47	236.19
988.76	236.20
989.05	236.22
989.34	236.17
989.63	236.18
989.92	236.14
990.22	236.03
990.51	236.03
990.80	236.02
991.09	235.99
991.38	236.07
991.67	236.05
991.96	236.07
992.25	236.07
992.54	236.05
992.83	236.02
993.12	236.04
993.41	236.07
993.70	236.12
993.99	236.13
994.28	236.12
994.58	236.11
994.87	236.02
995.16	236.01
995.45	236.04
995.74	235.96
996.03	235.97
996.32	235.97
996.61	236.04
996.90	235.99
997.19	236.01
997.48	236.01
997.77	235.98
998.06	235.98
998.34	235.94
998.63	235.93
998.92	235.99
999.21	236.02
999.50	236.08
999.79	236.04
1000.08	236.12
1000.37	236.15
1000.66	236.12
1000.95	236.18
1001.24	236.19
1001.53	236.19
1001.82	236.15
1002.11	236.10
1002.40	236.22
1002.68	236.22
1002.97	236.46
1003.26	236.48
1003.55	236.46
1003.84	236.45
1004.13	236.49
1004.42	236.50
1004.71	236.50
1004.99	236.48
1005.28	236.52
1005.57	236.45
1005.86	236.50
1006.15	236.37
1006.44	236.37
1006.72	236.37
1007.01	236.41
1007.30	236.37
1007.59	236.37
1007.88	236.38
1008.17	236.37
1008.45	236.33
1008.74	236.28
1009.03	236.12
1009.32	236.05
1009.60	236.06
1009.89	236.01
1010.18	235.98
1010.47	235.95
1010.76	235.90
1011.04	235.86
1011.33	235.83
1011.62	235.88
1011.91	235.87
1012.19	236.00
1012.48	235.96
1012.77	236.04
1013.05	236.15
1013.34	236.18
1013.63	236.20
1013.92	236.32
1014.20	236.37
1014.49	236.33
1014.78	236.37
1015.06	236.33
1015.35	236.39
1015.64	236.40
1015.92	236.47
1016.21	236.46
1016.50	236.47
1016.78	236.52
1017.07	236.56
1017.36	236.58
1017.64	236.57
1017.93	236.54
1018.22	236.50
1018.50	236.50
1018.79	236.48
1019.08	236.39
1019.36	236.49
1019.65	236.41
1019.93	236.45
1020.22	236.47
1020.51	236.67
1020.79	236.64
1021.08	236.90
1021.36	235.27
1021.65	236.93
1021.94	237.50
1022.22	237.73
1022.51	235.27
1022.79	238.03
1023.08	236.63
1023.36	240.63
1023.65	236.23
>>>>>End Processed Spectral Data<<<<<
