SpectraSuite Data File
++++++++++++++++++++++++++++++++++++
Date: Mon Oct 22 15:14:15 EDT 2012
User: group
Dark Spectrum Present: No
Reference Spectrum Present: No
Number of Sampled Component Spectra: 1
Spectrometers: USB2E7196
Integration Time (usec): 91000 (USB2E7196)
Spectra Averaged: 30 (USB2E7196)
Boxcar Smoothing: 10 (USB2E7196)
Correct for Electrical Dark: No (USB2E7196)
Strobe/Lamp Enabled: No (USB2E7196)
Correct for Detector Non-linearity: No (USB2E7196)
Correct for Stray Light: No (USB2E7196)
Number of Pixels in Processed Spectrum: 2048
>>>>>Begin Processed Spectral Data<<<<<
339.09	0.00
339.48	224.87
339.86	225.17
340.24	227.20
340.63	229.80
341.01	233.93
341.39	231.97
341.78	232.87
342.16	233.53
342.54	235.17
342.93	222.84
343.31	234.06
343.69	234.63
344.07	235.14
344.46	235.58
344.84	235.93
345.22	236.06
345.60	236.26
345.99	236.47
346.37	236.61
346.75	236.67
347.13	236.77
347.52	236.78
347.90	236.90
348.28	236.93
348.66	237.00
349.05	236.86
349.43	236.87
349.81	236.95
350.19	236.92
350.57	236.97
350.96	237.03
351.34	237.10
351.72	237.14
352.10	237.19
352.48	237.23
352.87	237.25
353.25	237.31
353.63	237.38
354.01	237.35
354.39	237.42
354.77	237.51
355.15	237.56
355.54	237.65
355.92	237.63
356.30	237.69
356.68	237.79
357.06	237.88
357.44	237.86
357.82	237.87
358.20	237.95
358.58	237.99
358.97	238.10
359.35	238.20
359.73	238.32
360.11	238.34
360.49	238.40
360.87	238.40
361.25	238.50
361.63	238.53
362.01	238.63
362.39	238.65
362.77	238.68
363.15	238.72
363.53	238.70
363.91	238.70
364.29	238.74
364.67	238.60
365.05	238.59
365.43	238.59
365.81	238.66
366.19	238.73
366.57	238.83
366.95	238.73
367.33	238.68
367.71	238.59
368.09	238.67
368.47	238.67
368.85	238.65
369.23	238.55
369.61	238.54
369.99	238.57
370.37	238.54
370.75	238.57
371.13	238.53
371.51	238.49
371.89	238.45
372.27	238.41
372.65	238.44
373.03	238.43
373.41	238.40
373.78	238.33
374.16	238.18
374.54	238.05
374.92	238.00
375.30	237.95
375.68	237.92
376.06	237.82
376.44	237.77
376.82	237.77
377.19	237.76
377.57	237.72
377.95	237.59
378.33	237.55
378.71	237.42
379.09	237.41
379.47	237.39
379.84	237.34
380.22	237.28
380.60	237.07
380.98	236.98
381.36	236.97
381.73	236.86
382.11	236.92
382.49	236.90
382.87	236.86
383.25	236.79
383.62	237.00
384.00	237.02
384.38	236.95
384.76	237.00
385.13	237.07
385.51	237.02
385.89	236.99
386.27	236.92
386.64	236.92
387.02	236.87
387.40	236.81
387.78	236.81
388.15	236.84
388.53	236.93
388.91	236.92
389.29	236.87
389.66	236.89
390.04	236.81
390.42	236.81
390.79	236.81
391.17	236.83
391.55	236.61
391.92	236.52
392.30	236.55
392.68	236.39
393.05	236.33
393.43	236.31
393.81	236.34
394.18	236.33
394.56	236.36
394.94	236.38
395.31	236.37
395.69	236.43
396.06	236.43
396.44	236.49
396.82	236.52
397.19	236.62
397.57	236.64
397.95	236.72
398.32	236.70
398.70	236.73
399.07	236.81
399.45	236.86
399.82	236.93
400.20	236.98
400.58	237.16
400.95	237.23
401.33	237.39
401.70	237.60
402.08	237.74
402.45	237.78
402.83	237.93
403.20	238.10
403.58	238.22
403.95	238.39
404.33	238.61
404.71	238.87
405.08	239.17
405.46	239.49
405.83	239.69
406.21	240.04
406.58	240.35
406.96	240.72
407.33	241.06
407.70	241.47
408.08	242.05
408.45	242.50
408.83	242.90
409.20	243.32
409.58	243.74
409.95	244.32
410.33	244.97
410.70	245.52
411.08	246.24
411.45	247.02
411.82	247.80
412.20	248.64
412.57	249.74
412.95	250.57
413.32	251.60
413.69	252.76
414.07	253.96
414.44	255.30
414.82	256.60
415.19	258.17
415.56	259.82
415.94	261.45
416.31	263.39
416.68	265.40
417.06	267.60
417.43	269.83
417.81	272.30
418.18	274.81
418.55	277.51
418.93	280.39
419.30	283.43
419.67	286.55
420.04	289.79
420.42	293.17
420.79	297.18
421.16	301.14
421.54	305.28
421.91	309.45
422.28	313.92
422.66	318.68
423.03	323.31
423.40	328.17
423.77	333.40
424.15	338.70
424.52	344.26
424.89	350.29
425.26	356.13
425.64	361.82
426.01	367.97
426.38	374.49
426.75	381.03
427.13	387.73
427.50	395.00
427.87	402.53
428.24	410.04
428.61	417.35
428.99	425.37
429.36	434.07
429.73	442.82
430.10	451.46
430.47	460.27
430.85	469.47
431.22	479.31
431.59	489.63
431.96	499.54
432.33	510.53
432.70	521.33
433.08	533.88
433.45	545.73
433.82	557.83
434.19	571.07
434.56	584.05
434.93	596.79
435.30	609.26
435.68	623.18
436.05	636.97
436.42	650.72
436.79	663.35
437.16	676.98
437.53	691.19
437.90	705.46
438.27	719.74
438.64	734.25
439.01	747.85
439.38	760.28
439.75	772.14
440.13	785.50
440.50	798.35
440.87	808.97
441.24	819.81
441.61	831.63
441.98	840.50
442.35	851.05
442.72	861.20
443.09	871.23
443.46	877.40
443.83	881.67
444.20	885.51
444.57	890.94
444.94	893.58
445.31	896.39
445.68	898.71
446.05	899.69
446.42	898.98
446.79	897.61
447.16	895.93
447.53	894.81
447.90	889.96
448.27	884.74
448.64	877.53
449.01	872.32
449.37	863.09
449.74	854.40
450.11	843.56
450.48	832.12
450.85	820.46
451.22	810.54
451.59	801.12
451.96	792.01
452.33	779.84
452.70	769.15
453.07	756.13
453.43	743.06
453.80	730.48
454.17	718.14
454.54	706.72
454.91	694.42
455.28	682.45
455.65	671.42
456.02	660.28
456.38	651.07
456.75	639.54
457.12	629.98
457.49	620.43
457.86	611.29
458.23	603.48
458.59	594.79
458.96	585.99
459.33	578.19
459.70	570.27
460.07	564.00
460.43	556.67
460.80	549.94
461.17	543.91
461.54	537.78
461.91	531.86
462.27	525.78
462.64	520.64
463.01	515.08
463.38	509.57
463.74	504.15
464.11	499.23
464.48	494.94
464.85	490.37
465.21	486.90
465.58	483.18
465.95	478.67
466.32	474.99
466.68	471.35
467.05	467.71
467.42	464.12
467.78	460.40
468.15	456.71
468.52	453.93
468.88	450.52
469.25	447.42
469.62	444.91
469.98	442.33
470.35	439.84
470.72	437.39
471.08	434.85
471.45	432.68
471.82	430.43
472.18	428.04
472.55	426.30
472.92	424.21
473.28	422.46
473.65	420.83
474.02	419.09
474.38	417.66
474.75	416.53
475.11	415.20
475.48	414.07
475.85	413.31
476.21	412.59
476.58	412.00
476.94	411.47
477.31	410.96
477.67	410.31
478.04	409.96
478.41	409.88
478.77	409.87
479.14	409.68
479.50	409.82
479.87	410.23
480.23	410.58
480.60	410.82
480.96	411.07
481.33	411.68
481.69	412.27
482.06	412.80
482.42	413.13
482.79	413.84
483.15	414.83
483.52	415.96
483.88	416.99
484.25	418.00
484.61	419.10
484.98	420.26
485.34	421.88
485.71	423.49
486.07	425.05
486.44	426.62
486.80	428.56
487.17	430.60
487.53	432.73
487.90	434.87
488.26	437.24
488.62	439.73
488.99	442.22
489.35	444.71
489.72	447.42
490.08	450.43
490.44	453.37
490.81	456.55
491.17	459.73
491.54	463.13
491.90	466.74
492.26	470.51
492.63	474.34
492.99	478.02
493.36	481.89
493.72	486.06
494.08	490.24
494.45	494.67
494.81	499.04
495.17	503.45
495.54	508.19
495.90	513.03
496.26	517.96
496.63	522.90
496.99	528.32
497.35	533.78
497.72	539.40
498.08	544.98
498.44	550.45
498.80	556.20
499.17	561.96
499.53	567.78
499.89	573.71
500.26	579.69
500.62	585.75
500.98	592.02
501.34	598.27
501.71	604.75
502.07	611.17
502.43	617.75
502.79	624.22
503.16	630.75
503.52	637.24
503.88	643.79
504.24	650.38
504.60	656.81
504.97	663.46
505.33	669.83
505.69	676.57
506.05	683.26
506.41	689.87
506.78	696.42
507.14	702.93
507.50	709.41
507.86	715.87
508.22	722.36
508.59	728.36
508.95	734.62
509.31	740.80
509.67	746.93
510.03	752.70
510.39	758.68
510.75	764.35
511.12	770.01
511.48	775.65
511.84	781.05
512.20	786.26
512.56	791.37
512.92	796.50
513.28	801.32
513.64	805.91
514.00	810.23
514.37	814.47
514.73	818.73
515.09	822.77
515.45	826.54
515.81	830.10
516.17	833.82
516.53	837.06
516.89	840.20
517.25	843.07
517.61	846.03
517.97	848.70
518.33	851.13
518.69	853.45
519.05	855.46
519.41	857.37
519.77	859.38
520.13	861.04
520.49	862.41
520.85	863.84
521.21	865.21
521.57	866.52
521.93	867.24
522.29	868.09
522.65	868.53
523.01	868.95
523.37	869.30
523.73	869.63
524.09	869.60
524.45	869.33
524.81	869.21
525.17	868.85
525.53	868.47
525.89	868.19
526.25	867.82
526.61	867.22
526.97	866.88
527.33	866.37
527.68	866.01
528.04	865.48
528.40	864.53
528.76	863.62
529.12	862.65
529.48	862.02
529.84	860.85
530.20	860.08
530.56	859.11
530.91	858.27
531.27	857.47
531.63	856.90
531.99	856.26
532.35	855.22
532.71	854.25
533.07	853.32
533.42	852.36
533.78	851.41
534.14	850.61
534.50	849.45
534.86	848.56
535.21	847.24
535.57	846.25
535.93	845.21
536.29	844.48
536.65	843.84
537.00	843.03
537.36	842.50
537.72	841.74
538.08	841.41
538.44	840.77
538.79	839.94
539.15	838.93
539.51	838.37
539.87	838.15
540.22	837.51
540.58	837.10
540.94	836.84
541.29	836.38
541.65	835.91
542.01	835.80
542.37	835.42
542.72	835.16
543.08	834.66
543.44	834.67
543.79	834.26
544.15	834.08
544.51	834.07
544.87	833.79
545.22	833.68
545.58	833.52
545.94	833.35
546.29	833.17
546.65	833.16
547.01	832.93
547.36	832.70
547.72	832.95
548.07	833.01
548.43	832.97
548.79	833.06
549.14	833.29
549.50	833.65
549.86	833.97
550.21	834.23
550.57	834.92
550.92	835.21
551.28	835.61
551.64	835.75
551.99	836.08
552.35	836.78
552.70	837.25
553.06	837.73
553.41	838.34
553.77	839.32
554.13	840.11
554.48	840.79
554.84	841.68
555.19	842.69
555.55	843.86
555.90	844.79
556.26	845.96
556.61	846.99
556.97	847.53
557.32	848.45
557.68	849.70
558.03	850.88
558.39	852.17
558.74	853.58
559.10	854.89
559.45	856.14
559.81	857.44
560.16	858.82
560.52	860.08
560.87	861.66
561.23	863.13
561.58	865.10
561.94	866.89
562.29	868.33
562.64	869.85
563.00	871.25
563.35	872.94
563.71	874.15
564.06	875.53
564.42	877.11
564.77	878.38
565.12	879.74
565.48	881.36
565.83	882.88
566.19	884.69
566.54	886.49
566.89	888.21
567.25	889.66
567.60	891.23
567.96	892.71
568.31	893.97
568.66	895.05
569.02	895.94
569.37	896.90
569.72	897.91
570.08	898.73
570.43	899.53
570.78	900.34
571.14	901.17
571.49	901.84
571.84	902.96
572.20	903.97
572.55	904.90
572.90	905.43
573.26	906.05
573.61	906.16
573.96	906.31
574.31	906.38
574.67	906.42
575.02	906.50
575.37	906.84
575.72	907.03
576.08	907.27
576.43	907.32
576.78	907.41
577.13	907.73
577.49	907.90
577.84	908.19
578.19	908.43
578.54	908.64
578.90	908.94
579.25	908.65
579.60	908.21
579.95	907.53
580.30	907.40
580.66	907.14
581.01	907.02
581.36	906.81
581.71	906.65
582.06	906.66
582.42	906.38
582.77	905.71
583.12	905.33
583.47	905.07
583.82	904.53
584.17	903.84
584.53	903.07
584.88	902.53
585.23	901.72
585.58	900.81
585.93	899.86
586.28	898.70
586.63	897.63
586.98	896.83
587.34	896.20
587.69	894.78
588.04	893.49
588.39	892.00
588.74	890.28
589.09	888.95
589.44	887.52
589.79	886.24
590.14	884.97
590.49	883.38
590.84	881.61
591.19	880.20
591.54	878.78
591.89	876.82
592.25	875.02
592.60	872.75
592.95	870.51
593.30	868.77
593.65	867.16
594.00	865.45
594.35	864.54
594.70	862.60
595.05	861.20
595.40	859.43
595.75	857.57
596.10	856.20
596.45	854.12
596.80	851.81
597.15	849.57
597.50	847.47
597.85	845.62
598.19	843.51
598.54	841.10
598.89	838.86
599.24	837.11
599.59	835.13
599.94	833.40
600.29	831.57
600.64	829.42
600.99	827.18
601.34	825.03
601.69	821.81
602.04	819.64
602.39	817.05
602.74	814.80
603.08	812.61
603.43	810.29
603.78	808.16
604.13	806.30
604.48	804.31
604.83	802.33
605.18	800.25
605.53	798.33
605.87	796.66
606.22	795.30
606.57	793.75
606.92	792.28
607.27	791.08
607.62	789.98
607.96	788.71
608.31	787.51
608.66	785.91
609.01	784.33
609.36	782.50
609.70	780.58
610.05	778.55
610.40	776.61
610.75	774.53
611.10	772.55
611.44	769.89
611.79	767.61
612.14	765.22
612.49	762.42
612.83	759.82
613.18	756.89
613.53	753.53
613.88	750.03
614.22	746.50
614.57	742.50
614.92	738.45
615.27	734.61
615.61	730.72
615.96	727.31
616.31	724.06
616.65	720.77
617.00	717.61
617.35	714.49
617.70	711.46
618.04	708.36
618.39	705.31
618.74	702.69
619.08	699.56
619.43	696.32
619.78	693.22
620.12	690.17
620.47	687.50
620.82	684.66
621.16	681.95
621.51	679.18
621.85	676.65
622.20	674.15
622.55	671.60
622.89	669.21
623.24	666.66
623.59	663.92
623.93	661.29
624.28	658.57
624.62	655.91
624.97	653.14
625.32	650.21
625.66	647.31
626.01	644.60
626.35	642.16
626.70	639.81
627.04	637.77
627.39	635.23
627.73	632.57
628.08	629.96
628.43	627.26
628.77	624.52
629.12	621.75
629.46	619.14
629.81	616.54
630.15	613.65
630.50	610.90
630.84	608.29
631.19	605.68
631.53	603.13
631.88	600.40
632.22	597.78
632.57	595.47
632.91	592.95
633.26	590.26
633.60	587.45
633.95	584.68
634.29	581.70
634.64	578.95
634.98	576.07
635.32	573.45
635.67	570.92
636.01	568.32
636.36	565.78
636.70	563.30
637.05	560.69
637.39	558.18
637.73	555.70
638.08	553.32
638.42	550.79
638.77	548.39
639.11	546.04
639.45	543.62
639.80	541.19
640.14	538.85
640.49	536.56
640.83	534.11
641.17	531.85
641.52	529.67
641.86	527.55
642.20	525.62
642.55	523.61
642.89	521.58
643.23	519.64
643.58	517.86
643.92	515.65
644.26	513.47
644.61	511.49
644.95	509.24
645.29	506.92
645.64	504.99
645.98	503.08
646.32	501.12
646.66	498.94
647.01	496.84
647.35	494.90
647.69	492.88
648.04	491.16
648.38	489.17
648.72	487.12
649.06	484.95
649.41	482.89
649.75	480.91
650.09	478.95
650.43	476.90
650.78	474.60
651.12	472.56
651.46	470.64
651.80	468.70
652.14	466.99
652.49	465.24
652.83	463.11
653.17	460.84
653.51	458.68
653.85	456.83
654.20	454.84
654.54	452.82
654.88	450.85
655.22	448.77
655.56	446.93
655.90	445.06
656.25	443.33
656.59	441.48
656.93	439.48
657.27	437.57
657.61	435.59
657.95	433.85
658.29	432.06
658.64	430.31
658.98	428.47
659.32	426.47
659.66	424.68
660.00	422.95
660.34	421.30
660.68	419.62
661.02	417.75
661.36	416.09
661.70	414.32
662.05	412.76
662.39	411.19
662.73	409.40
663.07	407.78
663.41	406.14
663.75	404.60
664.09	403.01
664.43	401.35
664.77	399.83
665.11	398.27
665.45	396.71
665.79	395.17
666.13	393.56
666.47	392.11
666.81	390.59
667.15	389.00
667.49	387.54
667.83	386.12
668.17	384.80
668.51	383.40
668.85	382.04
669.19	380.75
669.53	379.30
669.87	377.98
670.21	376.68
670.55	375.27
670.89	374.09
671.23	372.82
671.57	371.62
671.91	370.43
672.25	369.21
672.58	368.05
672.92	366.82
673.26	365.67
673.60	364.45
673.94	363.25
674.28	362.16
674.62	361.01
674.96	359.73
675.30	358.58
675.64	357.43
675.97	356.26
676.31	354.95
676.65	353.83
676.99	352.84
677.33	351.61
677.67	350.60
678.01	349.35
678.34	348.33
678.68	347.31
679.02	346.28
679.36	345.19
679.70	344.17
680.04	343.22
680.37	342.19
680.71	341.23
681.05	340.24
681.39	339.30
681.73	338.32
682.06	337.48
682.40	336.54
682.74	335.62
683.08	334.87
683.42	333.97
683.75	333.14
684.09	332.13
684.43	331.34
684.77	330.33
685.10	329.37
685.44	328.37
685.78	327.31
686.12	326.38
686.45	325.51
686.79	324.54
687.13	323.68
687.46	322.84
687.80	322.04
688.14	321.23
688.48	320.39
688.81	319.59
689.15	318.79
689.49	318.00
689.82	317.21
690.16	316.33
690.50	315.49
690.83	314.63
691.17	313.82
691.51	312.91
691.84	312.18
692.18	311.36
692.52	310.59
692.85	309.92
693.19	309.25
693.52	308.53
693.86	307.80
694.20	307.03
694.53	306.30
694.87	305.47
695.21	304.63
695.54	303.91
695.88	303.12
696.21	302.33
696.55	301.62
696.88	300.97
697.22	300.23
697.56	299.61
697.89	299.06
698.23	298.43
698.56	297.89
698.90	297.28
699.23	296.70
699.57	296.12
699.90	295.54
700.24	294.89
700.58	294.33
700.91	293.81
701.25	293.33
701.58	292.80
701.92	292.39
702.25	291.93
702.59	291.43
702.92	291.00
703.26	290.56
703.59	290.03
703.93	289.72
704.26	289.30
704.60	288.82
704.93	288.22
705.26	287.71
705.60	287.26
705.93	286.82
706.27	286.37
706.60	285.94
706.94	285.48
707.27	284.95
707.61	284.49
707.94	284.09
708.27	283.54
708.61	283.09
708.94	282.58
709.28	282.13
709.61	281.64
709.94	281.11
710.28	280.59
710.61	280.12
710.95	279.33
711.28	278.90
711.61	278.36
711.95	277.93
712.28	277.45
712.61	276.94
712.95	276.55
713.28	276.16
713.61	275.61
713.95	275.09
714.28	274.68
714.61	274.18
714.95	273.68
715.28	273.21
715.61	272.75
715.95	272.35
716.28	271.94
716.61	271.58
716.95	271.18
717.28	270.81
717.61	270.40
717.94	270.08
718.28	269.63
718.61	269.27
718.94	268.92
719.27	268.51
719.61	268.12
719.94	267.71
720.27	267.32
720.60	266.97
720.94	266.67
721.27	266.32
721.60	266.03
721.93	265.69
722.27	265.46
722.60	265.13
722.93	264.80
723.26	264.49
723.59	264.14
723.93	263.84
724.26	263.62
724.59	263.36
724.92	263.08
725.25	262.83
725.59	262.62
725.92	262.41
726.25	262.24
726.58	262.04
726.91	261.80
727.24	261.59
727.57	261.46
727.91	261.20
728.24	261.04
728.57	260.87
728.90	260.74
729.23	260.52
729.56	260.43
729.89	260.17
730.22	259.92
730.55	259.70
730.89	259.50
731.22	259.22
731.55	259.03
731.88	258.87
732.21	258.63
732.54	258.40
732.87	258.09
733.20	257.91
733.53	257.69
733.86	257.47
734.19	257.19
734.52	256.93
734.85	256.91
735.18	256.67
735.51	256.49
735.84	256.24
736.17	256.07
736.50	255.73
736.83	255.80
737.16	255.67
737.49	255.48
737.82	255.30
738.15	255.17
738.48	254.92
738.81	254.71
739.14	254.44
739.47	254.24
739.80	254.11
740.13	253.86
740.46	253.66
740.79	253.41
741.12	253.24
741.45	253.07
741.78	252.73
742.11	252.56
742.44	252.33
742.77	252.20
743.10	252.02
743.43	251.88
743.75	251.44
744.08	251.57
744.41	251.37
744.74	251.14
745.07	250.88
745.40	250.78
745.73	250.64
746.06	250.53
746.39	250.33
746.71	250.14
747.04	249.97
747.37	249.81
747.70	249.79
748.03	249.63
748.36	249.52
748.68	249.41
749.01	249.20
749.34	249.01
749.67	248.85
750.00	248.73
750.33	248.72
750.65	248.65
750.98	248.20
751.31	248.13
751.64	248.05
751.97	248.10
752.29	248.00
752.62	247.82
752.95	247.68
753.28	247.60
753.60	247.55
753.93	247.54
754.26	247.43
754.59	247.23
754.91	247.15
755.24	247.03
755.57	246.93
755.90	246.77
756.22	246.70
756.55	246.56
756.88	246.46
757.20	246.16
757.53	245.98
757.86	245.89
758.19	245.81
758.51	245.71
758.84	245.48
759.17	245.39
759.49	245.35
759.82	245.37
760.15	245.25
760.47	245.10
760.80	244.93
761.13	244.91
761.45	244.81
761.78	244.72
762.11	244.64
762.43	244.48
762.76	244.47
763.08	244.39
763.41	244.31
763.74	244.20
764.06	244.19
764.39	244.17
764.71	244.03
765.04	243.92
765.37	243.82
765.69	243.70
766.02	243.53
766.34	243.42
766.67	243.30
767.00	243.25
767.32	243.29
767.65	243.42
767.97	243.31
768.30	243.27
768.62	243.16
768.95	243.03
769.27	243.00
769.60	242.96
769.92	242.88
770.25	242.81
770.57	242.66
770.90	242.57
771.22	242.50
771.55	242.49
771.87	242.47
772.20	242.40
772.52	242.58
772.85	242.85
773.17	242.80
773.50	242.74
773.82	242.70
774.15	242.54
774.47	242.26
774.80	242.18
775.12	242.08
775.45	242.08
775.77	242.06
776.09	242.03
776.42	241.99
776.74	241.96
777.07	241.89
777.39	241.86
777.72	241.79
778.04	241.69
778.36	241.62
778.69	241.53
779.01	241.47
779.33	241.23
779.66	240.93
779.98	240.79
780.31	240.80
780.63	240.79
780.95	240.78
781.28	240.75
781.60	240.64
781.92	240.65
782.25	240.58
782.57	240.50
782.89	240.43
783.22	240.38
783.54	240.31
783.86	240.29
784.19	240.24
784.51	240.31
784.83	240.28
785.16	240.20
785.48	240.19
785.80	240.16
786.12	240.19
786.45	240.16
786.77	240.15
787.09	240.01
787.42	239.93
787.74	239.88
788.06	239.88
788.38	239.88
788.71	239.85
789.03	239.81
789.35	239.81
789.67	239.72
789.99	239.75
790.32	239.69
790.64	239.69
790.96	239.86
791.28	239.71
791.61	239.67
791.93	239.70
792.25	239.66
792.57	239.77
792.89	239.64
793.21	239.60
793.54	239.61
793.86	239.56
794.18	239.56
794.50	239.50
794.82	239.46
795.14	239.49
795.47	239.49
795.79	239.46
796.11	239.44
796.43	239.45
796.75	239.38
797.07	239.38
797.39	239.33
797.71	239.18
798.04	239.19
798.36	239.20
798.68	239.15
799.00	239.16
799.32	239.05
799.64	239.09
799.96	239.07
800.28	239.07
800.60	239.11
800.92	239.07
801.24	239.07
801.56	239.02
801.89	238.97
802.21	238.92
802.53	238.89
802.85	238.93
803.17	239.01
803.49	238.96
803.81	238.95
804.13	238.93
804.45	238.86
804.77	238.85
805.09	238.77
805.41	238.73
805.73	238.62
806.05	238.53
806.37	238.49
806.69	238.48
807.01	238.52
807.33	238.50
807.65	238.37
807.97	238.44
808.28	238.48
808.60	238.46
808.92	238.44
809.24	238.60
809.56	238.50
809.88	238.40
810.20	238.41
810.52	238.36
810.84	238.30
811.16	238.33
811.48	238.28
811.80	238.39
812.12	238.40
812.43	238.49
812.75	238.53
813.07	238.48
813.39	238.47
813.71	238.36
814.03	238.33
814.35	238.41
814.67	238.29
814.98	238.24
815.30	238.21
815.62	238.14
815.94	237.97
816.26	237.98
816.58	237.91
816.89	237.90
817.21	237.90
817.53	237.90
817.85	237.85
818.17	237.83
818.48	237.70
818.80	237.74
819.12	237.61
819.44	237.59
819.76	237.59
820.07	237.54
820.39	237.52
820.71	237.51
821.03	237.46
821.34	237.44
821.66	237.44
821.98	237.48
822.30	237.51
822.61	237.61
822.93	237.57
823.25	237.60
823.57	237.52
823.88	237.56
824.20	237.60
824.52	237.62
824.83	237.63
825.15	237.60
825.47	237.54
825.79	237.57
826.10	237.53
826.42	237.50
826.74	237.52
827.05	237.51
827.37	237.49
827.69	237.52
828.00	237.53
828.32	237.45
828.64	237.40
828.95	237.44
829.27	237.39
829.58	237.40
829.90	237.40
830.22	237.43
830.53	237.34
830.85	237.27
831.17	237.22
831.48	237.21
831.80	237.22
832.11	237.20
832.43	237.21
832.75	237.18
833.06	237.31
833.38	237.23
833.69	237.17
834.01	237.17
834.32	237.11
834.64	237.11
834.96	237.18
835.27	237.16
835.59	237.02
835.90	236.94
836.22	236.92
836.53	236.87
836.85	236.87
837.16	237.09
837.48	237.11
837.79	237.13
838.11	237.10
838.42	237.15
838.74	237.21
839.05	237.14
839.37	237.16
839.68	237.03
840.00	237.02
840.31	237.08
840.63	237.02
840.94	236.96
841.26	236.88
841.57	236.83
841.88	236.82
842.20	236.88
842.51	236.84
842.83	236.80
843.14	236.97
843.46	236.96
843.77	236.83
844.08	236.81
844.40	236.78
844.71	236.75
845.03	236.68
845.34	236.61
845.65	236.57
845.97	236.54
846.28	236.56
846.60	236.58
846.91	236.54
847.22	236.52
847.54	236.61
847.85	236.61
848.16	236.61
848.48	236.59
848.79	236.61
849.10	236.66
849.42	236.71
849.73	236.55
850.04	236.49
850.36	236.38
850.67	236.41
850.98	236.39
851.30	236.46
851.61	236.47
851.92	236.47
852.23	236.59
852.55	236.61
852.86	236.58
853.17	236.57
853.49	236.61
853.80	236.74
854.11	236.73
854.42	236.80
854.74	236.78
855.05	236.82
855.36	236.74
855.67	236.73
855.99	236.69
856.30	236.91
856.61	236.87
856.92	236.88
857.23	236.87
857.55	236.87
857.86	236.87
858.17	236.91
858.48	236.88
858.79	236.84
859.11	236.88
859.42	236.82
859.73	236.87
860.04	236.87
860.35	236.75
860.66	236.76
860.98	236.70
861.29	236.69
861.60	236.63
861.91	236.68
862.22	236.63
862.53	236.65
862.84	236.41
863.16	236.60
863.47	236.55
863.78	236.53
864.09	236.52
864.40	236.50
864.71	236.49
865.02	236.52
865.33	236.49
865.64	236.39
865.95	236.46
866.27	236.59
866.58	236.51
866.89	236.57
867.20	236.55
867.51	236.55
867.82	236.51
868.13	236.58
868.44	236.53
868.75	236.62
869.06	236.57
869.37	236.63
869.68	236.53
869.99	236.64
870.30	236.65
870.61	236.67
870.92	236.59
871.23	236.61
871.54	236.63
871.85	236.72
872.16	236.75
872.47	236.70
872.78	236.57
873.09	236.67
873.40	236.64
873.71	236.62
874.02	236.58
874.33	236.65
874.64	236.60
874.95	236.64
875.26	236.53
875.56	236.55
875.87	236.53
876.18	236.42
876.49	236.62
876.80	236.59
877.11	236.56
877.42	236.61
877.73	236.54
878.04	236.50
878.35	236.43
878.66	236.47
878.96	236.45
879.27	236.42
879.58	236.38
879.89	236.36
880.20	236.47
880.51	236.52
880.82	236.50
881.12	236.51
881.43	236.43
881.74	236.41
882.05	236.41
882.36	236.41
882.67	236.47
882.97	236.19
883.28	236.16
883.59	236.14
883.90	236.11
884.21	236.22
884.51	236.22
884.82	236.14
885.13	236.12
885.44	236.14
885.74	236.11
886.05	236.04
886.36	236.03
886.67	235.90
886.98	236.00
887.28	235.99
887.59	235.96
887.90	236.04
888.20	236.05
888.51	236.08
888.82	236.05
889.13	236.04
889.43	236.22
889.74	236.26
890.05	236.26
890.35	236.31
890.66	236.22
890.97	236.22
891.28	236.32
891.58	236.30
891.89	236.30
892.20	236.33
892.50	236.38
892.81	236.40
893.12	236.44
893.42	236.36
893.73	236.38
894.04	236.37
894.34	236.34
894.65	236.37
894.95	236.36
895.26	236.40
895.57	236.53
895.87	236.34
896.18	236.39
896.48	236.36
896.79	236.32
897.10	236.39
897.40	236.42
897.71	236.47
898.01	236.47
898.32	236.54
898.63	236.52
898.93	236.54
899.24	236.56
899.54	236.51
899.85	236.55
900.15	236.49
900.46	236.51
900.76	236.59
901.07	236.60
901.38	236.63
901.68	236.61
901.99	236.48
902.29	236.50
902.60	236.45
902.90	236.44
903.21	236.44
903.51	236.44
903.82	236.46
904.12	236.38
904.43	236.33
904.73	236.29
905.03	236.28
905.34	236.44
905.64	236.43
905.95	236.45
906.25	236.43
906.56	236.48
906.86	236.46
907.17	236.38
907.47	236.31
907.77	236.24
908.08	236.24
908.38	236.26
908.69	236.27
908.99	236.36
909.30	236.39
909.60	236.36
909.90	236.39
910.21	236.33
910.51	236.32
910.81	236.38
911.12	236.43
911.42	236.46
911.73	236.26
912.03	236.28
912.33	236.28
912.64	236.22
912.94	236.20
913.24	236.20
913.55	236.18
913.85	236.24
914.15	236.30
914.46	236.27
914.76	236.28
915.06	236.25
915.37	236.17
915.67	236.18
915.97	236.20
916.27	236.13
916.58	236.17
916.88	236.13
917.18	236.11
917.49	236.22
917.79	236.20
918.09	236.27
918.39	236.35
918.70	236.38
919.00	236.40
919.30	236.51
919.60	236.50
919.91	236.48
920.21	236.52
920.51	236.54
920.81	236.61
921.12	236.62
921.42	236.68
921.72	236.67
922.02	236.69
922.32	236.77
922.63	236.81
922.93	236.90
923.23	236.95
923.53	236.93
923.83	236.79
924.13	236.83
924.44	236.75
924.74	236.68
925.04	236.74
925.34	236.77
925.64	236.63
925.94	236.64
926.24	236.84
926.55	236.79
926.85	236.77
927.15	236.73
927.45	236.78
927.75	236.81
928.05	236.86
928.35	236.86
928.65	236.86
928.95	236.88
929.26	236.85
929.56	236.88
929.86	236.89
930.16	236.83
930.46	236.83
930.76	236.90
931.06	236.88
931.36	236.78
931.66	236.75
931.96	236.78
932.26	236.85
932.56	236.69
932.86	236.72
933.16	236.68
933.46	236.66
933.76	236.53
934.06	236.50
934.36	236.54
934.66	236.48
934.96	236.42
935.26	236.42
935.56	236.36
935.86	236.28
936.16	236.30
936.46	236.28
936.76	236.23
937.06	236.15
937.36	236.18
937.66	236.25
937.96	236.21
938.26	236.19
938.56	236.16
938.86	236.15
939.16	236.12
939.46	236.19
939.76	236.23
940.06	236.25
940.35	236.23
940.65	236.15
940.95	236.20
941.25	236.17
941.55	236.10
941.85	236.08
942.15	236.12
942.45	236.13
942.75	236.13
943.04	236.15
943.34	236.19
943.64	236.09
943.94	236.06
944.24	236.08
944.54	236.11
944.84	236.10
945.13	236.16
945.43	236.20
945.73	236.14
946.03	236.11
946.33	236.16
946.62	236.13
946.92	236.10
947.22	236.14
947.52	236.17
947.82	236.20
948.11	236.21
948.41	236.23
948.71	236.25
949.01	236.28
949.31	236.26
949.60	236.30
949.90	236.39
950.20	236.30
950.50	236.35
950.79	236.32
951.09	236.35
951.39	236.28
951.69	236.28
951.98	236.31
952.28	236.35
952.58	236.34
952.87	236.41
953.17	236.51
953.47	236.50
953.76	236.43
954.06	236.42
954.36	236.37
954.66	236.35
954.95	236.36
955.25	236.42
955.55	236.41
955.84	236.33
956.14	236.29
956.44	236.37
956.73	236.30
957.03	236.30
957.32	236.28
957.62	236.31
957.92	236.36
958.21	236.34
958.51	236.57
958.81	236.55
959.10	236.51
959.40	236.49
959.69	236.48
959.99	236.59
960.29	236.59
960.58	236.67
960.88	236.69
961.17	236.67
961.47	236.66
961.76	236.64
962.06	236.70
962.36	236.72
962.65	236.68
962.95	236.70
963.24	236.70
963.54	236.66
963.83	236.63
964.13	236.57
964.42	236.49
964.72	236.33
965.01	236.34
965.31	236.34
965.60	236.26
965.90	236.34
966.19	236.23
966.49	236.24
966.78	236.19
967.08	236.17
967.37	236.16
967.67	236.13
967.96	236.20
968.26	236.21
968.55	236.26
968.85	236.30
969.14	236.27
969.43	236.30
969.73	236.33
970.02	236.37
970.32	236.34
970.61	236.34
970.91	236.26
971.20	236.19
971.49	236.16
971.79	236.23
972.08	236.07
972.38	236.11
972.67	236.07
972.96	236.13
973.26	236.10
973.55	236.17
973.85	236.10
974.14	236.06
974.43	236.07
974.73	236.03
975.02	236.02
975.31	236.04
975.61	236.01
975.90	236.01
976.19	235.92
976.49	235.99
976.78	236.04
977.07	236.02
977.37	236.09
977.66	236.15
977.95	236.16
978.24	236.20
978.54	236.29
978.83	236.34
979.12	236.33
979.42	236.36
979.71	236.34
980.00	236.40
980.29	236.41
980.59	236.32
980.88	236.33
981.17	236.31
981.46	236.35
981.76	236.37
982.05	236.43
982.34	236.54
982.63	236.50
982.93	236.52
983.22	236.60
983.51	236.54
983.80	236.56
984.09	236.56
984.39	236.56
984.68	236.51
984.97	236.55
985.26	236.53
985.55	236.57
985.85	236.48
986.14	236.53
986.43	236.58
986.72	236.62
987.01	236.54
987.30	236.57
987.59	236.54
987.89	236.56
988.18	236.49
988.47	236.44
988.76	236.44
989.05	236.39
989.34	236.36
989.63	236.46
989.92	236.41
990.22	236.38
990.51	236.35
990.80	236.31
991.09	236.28
991.38	236.26
991.67	236.16
991.96	236.15
992.25	236.12
992.54	236.08
992.83	236.10
993.12	236.08
993.41	236.12
993.70	236.21
993.99	236.20
994.28	236.25
994.58	236.25
994.87	236.24
995.16	236.23
995.45	236.17
995.74	236.10
996.03	236.17
996.32	236.20
996.61	236.26
996.90	236.27
997.19	236.27
997.48	236.27
997.77	236.28
998.06	236.29
998.34	236.27
998.63	236.29
998.92	236.31
999.21	236.39
999.50	236.41
999.79	236.33
1000.08	236.33
1000.37	236.27
1000.66	236.24
1000.95	236.28
1001.24	236.29
1001.53	236.39
1001.82	236.38
1002.11	236.30
1002.40	236.28
1002.68	236.35
1002.97	236.49
1003.26	236.42
1003.55	236.44
1003.84	236.52
1004.13	236.63
1004.42	236.66
1004.71	236.68
1004.99	236.70
1005.28	236.73
1005.57	236.70
1005.86	236.66
1006.15	236.65
1006.44	236.64
1006.72	236.73
1007.01	236.70
1007.30	236.75
1007.59	236.71
1007.88	236.71
1008.17	236.71
1008.45	236.73
1008.74	236.59
1009.03	236.55
1009.32	236.61
1009.60	236.58
1009.89	236.55
1010.18	236.48
1010.47	236.46
1010.76	236.43
1011.04	236.40
1011.33	236.38
1011.62	236.38
1011.91	236.43
1012.19	236.46
1012.48	236.48
1012.77	236.46
1013.05	236.54
1013.34	236.56
1013.63	236.56
1013.92	236.59
1014.20	236.60
1014.49	236.58
1014.78	236.63
1015.06	236.55
1015.35	236.52
1015.64	236.59
1015.92	236.60
1016.21	236.56
1016.50	236.56
1016.78	236.56
1017.07	236.57
1017.36	236.54
1017.64	236.54
1017.93	236.52
1018.22	236.46
1018.50	236.49
1018.79	236.46
1019.08	236.37
1019.36	236.32
1019.65	236.27
1019.93	236.27
1020.22	236.30
1020.51	236.38
1020.79	236.33
1021.08	235.37
1021.36	236.30
1021.65	236.30
1021.94	236.17
1022.22	236.23
1022.51	235.63
1022.79	236.47
1023.08	236.80
1023.36	238.37
1023.65	235.63
>>>>>End Processed Spectral Data<<<<<
