SpectraSuite Data File
++++++++++++++++++++++++++++++++++++
Date: Mon Oct 22 15:14:29 EDT 2012
User: group
Dark Spectrum Present: No
Reference Spectrum Present: No
Number of Sampled Component Spectra: 1
Spectrometers: USB2E7196
Integration Time (usec): 91000 (USB2E7196)
Spectra Averaged: 30 (USB2E7196)
Boxcar Smoothing: 10 (USB2E7196)
Correct for Electrical Dark: No (USB2E7196)
Strobe/Lamp Enabled: No (USB2E7196)
Correct for Detector Non-linearity: No (USB2E7196)
Correct for Stray Light: No (USB2E7196)
Number of Pixels in Processed Spectrum: 2048
>>>>>Begin Processed Spectral Data<<<<<
339.09	0.00
339.48	223.37
339.86	225.97
340.24	226.77
340.63	228.97
341.01	231.73
341.39	230.80
341.78	232.20
342.16	233.40
342.54	233.70
342.93	221.96
343.31	233.16
343.69	233.80
344.07	234.24
344.46	234.71
344.84	235.08
345.22	235.28
345.60	235.53
345.99	235.77
346.37	235.86
346.75	235.94
347.13	236.04
347.52	236.13
347.90	236.26
348.28	236.29
348.66	236.38
349.05	236.35
349.43	236.39
349.81	236.39
350.19	236.47
350.57	236.60
350.96	236.68
351.34	236.76
351.72	236.84
352.10	236.91
352.48	236.94
352.87	236.95
353.25	237.06
353.63	237.17
354.01	237.21
354.39	237.38
354.77	237.51
355.15	237.67
355.54	237.73
355.92	237.74
356.30	237.81
356.68	238.02
357.06	238.16
357.44	238.21
357.82	238.36
358.20	238.45
358.58	238.44
358.97	238.53
359.35	238.68
359.73	238.71
360.11	238.83
360.49	238.89
360.87	238.99
361.25	239.07
361.63	239.15
362.01	239.20
362.39	239.17
362.77	239.20
363.15	239.20
363.53	239.22
363.91	239.21
364.29	239.23
364.67	239.07
365.05	239.10
365.43	239.17
365.81	239.23
366.19	239.35
366.57	239.48
366.95	239.47
367.33	239.37
367.71	239.34
368.09	239.38
368.47	239.39
368.85	239.33
369.23	239.38
369.61	239.29
369.99	239.33
370.37	239.37
370.75	239.48
371.13	239.41
371.51	239.40
371.89	239.40
372.27	239.43
372.65	239.38
373.03	239.34
373.41	239.29
373.78	239.17
374.16	238.96
374.54	238.84
374.92	238.77
375.30	238.73
375.68	238.71
376.06	238.63
376.44	238.60
376.82	238.60
377.19	238.48
377.57	238.44
377.95	238.34
378.33	238.27
378.71	238.05
379.09	238.00
379.47	237.96
379.84	237.90
380.22	237.78
380.60	237.67
380.98	237.58
381.36	237.49
381.73	237.42
382.11	237.49
382.49	237.43
382.87	237.35
383.25	237.33
383.62	237.52
384.00	237.44
384.38	237.40
384.76	237.41
385.13	237.42
385.51	237.34
385.89	237.27
386.27	237.21
386.64	237.22
387.02	237.12
387.40	237.04
387.78	237.03
388.15	236.99
388.53	236.99
388.91	236.99
389.29	236.95
389.66	236.96
390.04	236.89
390.42	236.90
390.79	236.90
391.17	236.84
391.55	236.60
391.92	236.54
392.30	236.49
392.68	236.42
393.05	236.38
393.43	236.44
393.81	236.45
394.18	236.43
394.56	236.40
394.94	236.50
395.31	236.48
395.69	236.50
396.06	236.55
396.44	236.59
396.82	236.60
397.19	236.73
397.57	236.69
397.95	236.74
398.32	236.76
398.70	236.80
399.07	236.87
399.45	236.90
399.82	237.00
400.20	237.13
400.58	237.20
400.95	237.23
401.33	237.31
401.70	237.55
402.08	237.67
402.45	237.78
402.83	237.97
403.20	238.15
403.58	238.24
403.95	238.45
404.33	238.65
404.71	238.80
405.08	239.08
405.46	239.34
405.83	239.63
406.21	239.88
406.58	240.20
406.96	240.47
407.33	240.79
407.70	241.21
408.08	241.72
408.45	242.18
408.83	242.69
409.20	243.19
409.58	243.57
409.95	244.17
410.33	244.84
410.70	245.41
411.08	246.14
411.45	246.94
411.82	247.75
412.20	248.65
412.57	249.73
412.95	250.55
413.32	251.73
413.69	252.80
414.07	253.99
414.44	255.34
414.82	256.80
415.19	258.40
415.56	260.00
415.94	261.66
416.31	263.57
416.68	265.49
417.06	267.62
417.43	269.77
417.81	272.20
418.18	274.68
418.55	277.42
418.93	280.20
419.30	283.20
419.67	286.25
420.04	289.52
420.42	292.91
420.79	296.80
421.16	300.73
421.54	304.78
421.91	309.00
422.28	313.44
422.66	318.05
423.03	322.63
423.40	327.50
423.77	332.67
424.15	338.03
424.52	343.50
424.89	349.63
425.26	355.56
425.64	361.20
426.01	367.27
426.38	373.73
426.75	380.33
427.13	387.05
427.50	394.24
427.87	401.81
428.24	409.41
428.61	416.80
428.99	424.69
429.36	433.49
429.73	442.19
430.10	450.79
430.47	459.66
430.85	469.00
431.22	478.76
431.59	489.16
431.96	499.06
432.33	510.12
432.70	520.85
433.08	533.35
433.45	545.26
433.82	557.24
434.19	570.39
434.56	583.36
434.93	596.03
435.30	608.59
435.68	622.37
436.05	635.96
436.42	649.70
436.79	662.31
437.16	675.93
437.53	690.32
437.90	704.54
438.27	718.67
438.64	733.09
439.01	746.61
439.38	758.72
439.75	770.60
440.13	783.94
440.50	796.55
440.87	807.12
441.24	818.00
441.61	829.96
441.98	838.94
442.35	849.25
442.72	859.51
443.09	869.40
443.46	875.53
443.83	879.83
444.20	883.62
444.57	888.97
444.94	891.68
445.31	894.33
445.68	896.64
446.05	897.86
446.42	897.13
446.79	895.93
447.16	894.36
447.53	893.27
447.90	888.40
448.27	883.17
448.64	876.00
449.01	870.70
449.37	861.47
449.74	852.67
450.11	841.93
450.48	830.48
450.85	818.79
451.22	808.89
451.59	799.68
451.96	790.65
452.33	778.65
452.70	767.73
453.07	754.82
453.43	741.89
453.80	729.19
454.17	716.79
454.54	705.18
454.91	693.08
455.28	681.06
455.65	670.04
456.02	659.03
456.38	649.78
456.75	638.26
457.12	628.80
457.49	619.23
457.86	610.31
458.23	602.45
458.59	593.82
458.96	585.13
459.33	577.41
459.70	569.57
460.07	563.27
460.43	556.05
460.80	549.17
461.17	543.06
461.54	536.87
461.91	530.97
462.27	524.96
462.64	519.79
463.01	514.12
463.38	508.61
463.74	503.40
464.11	498.51
464.48	494.35
464.85	489.67
465.21	486.20
465.58	482.51
465.95	478.02
466.32	474.45
466.68	470.82
467.05	467.02
467.42	463.33
467.78	459.57
468.15	455.88
468.52	453.19
468.88	449.92
469.25	446.97
469.62	444.68
469.98	442.12
470.35	439.65
470.72	437.31
471.08	434.76
471.45	432.49
471.82	430.26
472.18	427.82
472.55	426.15
472.92	424.11
473.28	422.34
473.65	420.70
474.02	419.01
474.38	417.62
474.75	416.49
475.11	415.25
475.48	414.28
475.85	413.57
476.21	412.75
476.58	412.15
476.94	411.65
477.31	410.89
477.67	410.30
478.04	409.87
478.41	409.74
478.77	409.77
479.14	409.58
479.50	409.80
479.87	410.12
480.23	410.47
480.60	410.71
480.96	410.84
481.33	411.54
481.69	412.09
482.06	412.59
482.42	412.93
482.79	413.63
483.15	414.55
483.52	415.77
483.88	416.80
484.25	417.83
484.61	419.08
484.98	420.45
485.34	421.99
485.71	423.68
486.07	425.35
486.44	426.96
486.80	428.86
487.17	430.77
487.53	432.81
487.90	434.96
488.26	437.35
488.62	439.96
488.99	442.27
489.35	444.82
489.72	447.57
490.08	450.69
490.44	453.71
490.81	456.85
491.17	459.88
491.54	463.52
491.90	466.96
492.26	470.45
492.63	474.13
492.99	477.95
493.36	481.81
493.72	485.88
494.08	490.06
494.45	494.37
494.81	498.77
495.17	503.39
495.54	508.14
495.90	513.03
496.26	517.87
496.63	522.94
496.99	528.26
497.35	533.75
497.72	539.20
498.08	544.66
498.44	550.11
498.80	555.92
499.17	561.49
499.53	567.28
499.89	573.18
500.26	579.04
500.62	584.89
500.98	591.17
501.34	597.40
501.71	603.84
502.07	610.30
502.43	616.83
502.79	623.21
503.16	629.74
503.52	636.33
503.88	642.91
504.24	649.37
504.60	655.83
504.97	662.22
505.33	668.61
505.69	675.42
506.05	682.02
506.41	688.49
506.78	695.03
507.14	701.58
507.50	708.04
507.86	714.56
508.22	721.28
508.59	727.41
508.95	733.70
509.31	739.87
509.67	745.94
510.03	751.82
510.39	757.59
510.75	763.17
511.12	768.61
511.48	773.97
511.84	779.39
512.20	784.61
512.56	789.83
512.92	794.95
513.28	799.80
513.64	804.47
514.00	808.90
514.37	813.02
514.73	817.17
515.09	821.23
515.45	825.11
515.81	828.64
516.17	832.03
516.53	835.22
516.89	838.43
517.25	841.48
517.61	844.33
517.97	847.14
518.33	849.49
518.69	851.82
519.05	854.07
519.41	856.03
519.77	858.04
520.13	859.61
520.49	861.02
520.85	862.37
521.21	863.70
521.57	865.23
521.93	866.06
522.29	866.96
522.65	867.57
523.01	868.09
523.37	868.38
523.73	868.99
524.09	869.09
524.45	868.83
524.81	868.65
525.17	868.53
525.53	868.25
525.89	867.87
526.25	867.45
526.61	866.83
526.97	866.28
527.33	865.72
527.68	865.53
528.04	865.10
528.40	864.15
528.76	863.26
529.12	862.17
529.48	861.50
529.84	860.36
530.20	859.53
530.56	858.31
530.91	857.46
531.27	856.36
531.63	855.54
531.99	854.88
532.35	853.74
532.71	852.56
533.07	851.57
533.42	850.88
533.78	849.90
534.14	849.13
534.50	848.27
534.86	847.51
535.21	846.10
535.57	845.05
535.93	843.91
536.29	843.19
536.65	842.35
537.00	841.63
537.36	841.09
537.72	840.26
538.08	840.19
538.44	839.47
538.79	838.77
539.15	838.19
539.51	837.93
539.87	837.89
540.22	837.43
540.58	837.23
540.94	836.85
541.29	836.52
541.65	836.18
542.01	836.01
542.37	835.58
542.72	835.44
543.08	835.03
543.44	835.19
543.79	834.71
544.15	834.69
544.51	834.75
544.87	834.62
545.22	834.63
545.58	834.34
545.94	834.30
546.29	834.20
546.65	833.92
547.01	833.40
547.36	833.12
547.72	833.19
548.07	832.95
548.43	833.06
548.79	833.28
549.14	833.40
549.50	833.86
549.86	834.16
550.21	834.52
550.57	835.13
550.92	835.54
551.28	836.10
551.64	836.18
551.99	836.55
552.35	837.03
552.70	837.60
553.06	837.98
553.41	838.61
553.77	839.45
554.13	840.36
554.48	841.16
554.84	842.14
555.19	843.19
555.55	844.52
555.90	845.40
556.26	846.36
556.61	847.44
556.97	847.83
557.32	848.83
557.68	849.85
558.03	850.95
558.39	852.02
558.74	853.41
559.10	854.76
559.45	856.13
559.81	857.63
560.16	858.78
560.52	860.29
560.87	862.01
561.23	863.62
561.58	865.57
561.94	867.34
562.29	868.66
562.64	870.30
563.00	871.69
563.35	873.17
563.71	874.61
564.06	876.12
564.42	877.71
564.77	878.83
565.12	880.20
565.48	881.85
565.83	883.48
566.19	885.30
566.54	887.20
566.89	888.68
567.25	889.90
567.60	891.72
567.96	893.10
568.31	894.21
568.66	895.23
569.02	896.14
569.37	896.92
569.72	897.83
570.08	898.55
570.43	899.46
570.78	900.50
571.14	901.33
571.49	902.03
571.84	903.11
572.20	904.24
572.55	905.44
572.90	906.09
573.26	906.70
573.61	906.84
573.96	906.87
574.31	906.95
574.67	907.26
575.02	907.02
575.37	907.32
575.72	907.57
576.08	907.97
576.43	908.02
576.78	908.22
577.13	908.76
577.49	909.16
577.84	909.40
578.19	909.53
578.54	909.71
578.90	910.02
579.25	909.90
579.60	909.61
579.95	908.82
580.30	908.61
580.66	908.54
581.01	908.61
581.36	908.52
581.71	908.37
582.06	908.36
582.42	908.27
582.77	907.69
583.12	907.28
583.47	906.77
583.82	906.16
584.17	905.44
584.53	904.76
584.88	903.88
585.23	903.04
585.58	902.16
585.93	901.04
586.28	900.06
586.63	899.02
586.98	898.05
587.34	897.44
587.69	896.07
588.04	894.56
588.39	893.02
588.74	891.31
589.09	889.98
589.44	888.37
589.79	887.23
590.14	886.04
590.49	884.30
590.84	882.67
591.19	881.48
591.54	879.96
591.89	877.84
592.25	876.17
592.60	873.93
592.95	871.80
593.30	870.06
593.65	868.06
594.00	866.24
594.35	865.41
594.70	863.52
595.05	861.93
595.40	860.13
595.75	858.05
596.10	856.52
596.45	854.28
596.80	852.23
597.15	849.78
597.50	847.54
597.85	845.82
598.19	843.79
598.54	841.26
598.89	839.20
599.24	837.52
599.59	835.44
599.94	833.67
600.29	831.90
600.64	829.82
600.99	827.73
601.34	825.50
601.69	822.21
602.04	819.77
602.39	817.26
602.74	815.03
603.08	812.85
603.43	810.54
603.78	808.55
604.13	806.52
604.48	804.59
604.83	802.80
605.18	800.80
605.53	798.88
605.87	797.20
606.22	795.88
606.57	794.61
606.92	793.57
607.27	792.64
607.62	791.67
607.96	790.74
608.31	789.59
608.66	788.34
609.01	787.03
609.36	785.58
609.70	784.01
610.05	782.23
610.40	780.51
610.75	778.67
611.10	776.83
611.44	774.55
611.79	772.22
612.14	769.79
612.49	767.08
612.83	764.33
613.18	761.42
613.53	758.07
613.88	754.25
614.22	750.32
614.57	746.10
614.92	741.80
615.27	737.81
615.61	733.87
615.96	730.18
616.31	726.50
616.65	723.07
617.00	719.71
617.35	716.52
617.70	713.26
618.04	710.02
618.39	706.88
618.74	703.97
619.08	700.99
619.43	697.75
619.78	694.45
620.12	691.46
620.47	688.66
620.82	685.73
621.16	682.99
621.51	680.27
621.85	677.62
622.20	675.04
622.55	672.27
622.89	669.78
623.24	667.34
623.59	664.81
623.93	662.13
624.28	659.33
624.62	656.52
624.97	653.73
625.32	650.97
625.66	648.12
626.01	645.28
626.35	642.69
626.70	640.19
627.04	638.10
627.39	635.65
627.73	633.15
628.08	630.59
628.43	627.90
628.77	625.17
629.12	622.58
629.46	620.10
629.81	617.37
630.15	614.52
630.50	611.79
630.84	609.06
631.19	606.37
631.53	603.87
631.88	601.20
632.22	598.63
632.57	596.12
632.91	593.40
633.26	590.83
633.60	588.00
633.95	585.15
634.29	582.19
634.64	579.39
634.98	576.33
635.32	573.68
635.67	571.20
636.01	568.58
636.36	565.92
636.70	563.42
637.05	560.90
637.39	558.46
637.73	555.81
638.08	553.47
638.42	551.05
638.77	548.55
639.11	546.06
639.45	543.68
639.80	541.12
640.14	538.80
640.49	536.34
640.83	534.12
641.17	531.91
641.52	529.76
641.86	527.53
642.20	525.73
642.55	523.61
642.89	521.44
643.23	519.37
643.58	517.57
643.92	515.32
644.26	513.22
644.61	511.09
644.95	508.93
645.29	506.67
645.64	504.58
645.98	502.61
646.32	500.80
646.66	498.71
647.01	496.76
647.35	495.00
647.69	493.03
648.04	491.18
648.38	489.16
648.72	487.12
649.06	485.03
649.41	482.88
649.75	480.89
650.09	479.02
650.43	477.10
650.78	474.92
651.12	472.81
651.46	470.97
651.80	469.12
652.14	467.42
652.49	465.65
652.83	463.60
653.17	461.46
653.51	459.29
653.85	457.32
654.20	455.30
654.54	453.14
654.88	451.27
655.22	449.22
655.56	447.26
655.90	445.47
656.25	443.77
656.59	441.89
656.93	439.96
657.27	438.08
657.61	436.22
657.95	434.57
658.29	432.89
658.64	431.08
658.98	429.23
659.32	427.29
659.66	425.39
660.00	423.71
660.34	422.06
660.68	420.34
661.02	418.50
661.36	416.81
661.70	415.21
662.05	413.57
662.39	411.99
662.73	410.49
663.07	408.90
663.41	407.27
663.75	405.73
664.09	404.21
664.43	402.64
664.77	401.11
665.11	399.41
665.45	397.91
665.79	396.37
666.13	394.77
666.47	393.26
666.81	391.82
667.15	390.26
667.49	388.79
667.83	387.44
668.17	386.04
668.51	384.65
668.85	383.24
669.19	381.96
669.53	380.41
669.87	378.90
670.21	377.53
670.55	376.16
670.89	374.89
671.23	373.62
671.57	372.29
671.91	371.06
672.25	369.84
672.58	368.61
672.92	367.34
673.26	366.17
673.60	364.93
673.94	363.72
674.28	362.59
674.62	361.41
674.96	360.12
675.30	359.00
675.64	357.82
675.97	356.64
676.31	355.46
676.65	354.34
676.99	353.43
677.33	352.17
677.67	351.05
678.01	349.94
678.34	348.87
678.68	347.86
679.02	346.74
679.36	345.72
679.70	344.59
680.04	343.58
680.37	342.53
680.71	341.45
681.05	340.52
681.39	339.43
681.73	338.42
682.06	337.44
682.40	336.53
682.74	335.68
683.08	334.85
683.42	333.81
683.75	333.05
684.09	332.03
684.43	331.20
684.77	330.28
685.10	329.30
685.44	328.35
685.78	327.39
686.12	326.48
686.45	325.52
686.79	324.68
687.13	323.72
687.46	322.90
687.80	322.21
688.14	321.29
688.48	320.52
688.81	319.67
689.15	318.96
689.49	318.11
689.82	317.27
690.16	316.38
690.50	315.68
690.83	314.81
691.17	313.96
691.51	313.17
691.84	312.40
692.18	311.57
692.52	310.73
692.85	309.94
693.19	309.24
693.52	308.48
693.86	307.73
694.20	307.09
694.53	306.33
694.87	305.55
695.21	304.78
695.54	304.00
695.88	303.28
696.21	302.37
696.55	301.66
696.88	300.88
697.22	300.11
697.56	299.44
697.89	298.77
698.23	298.16
698.56	297.50
698.90	296.90
699.23	296.35
699.57	295.77
699.90	295.24
700.24	294.63
700.58	294.11
700.91	293.56
701.25	293.18
701.58	292.75
701.92	292.23
702.25	291.79
702.59	291.34
702.92	290.89
703.26	290.55
703.59	290.09
703.93	289.89
704.26	289.52
704.60	289.00
704.93	288.52
705.26	288.03
705.60	287.55
705.93	287.05
706.27	286.62
706.60	286.19
706.94	285.82
707.27	285.35
707.61	284.90
707.94	284.44
708.27	283.87
708.61	283.30
708.94	282.83
709.28	282.29
709.61	281.83
709.94	281.32
710.28	280.78
710.61	280.27
710.95	279.48
711.28	279.09
711.61	278.60
711.95	278.10
712.28	277.56
712.61	277.04
712.95	276.66
713.28	276.22
713.61	275.75
713.95	275.07
714.28	274.54
714.61	274.00
714.95	273.50
715.28	272.91
715.61	272.46
715.95	271.94
716.28	271.49
716.61	271.01
716.95	270.56
717.28	270.13
717.61	269.67
717.94	269.35
718.28	268.80
718.61	268.43
718.94	268.07
719.27	267.81
719.61	267.53
719.94	267.15
720.27	266.70
720.60	266.32
720.94	266.05
721.27	265.77
721.60	265.50
721.93	265.21
722.27	265.02
722.60	264.70
722.93	264.38
723.26	264.13
723.59	263.83
723.93	263.56
724.26	263.30
724.59	263.11
724.92	262.86
725.25	262.62
725.59	262.40
725.92	262.16
726.25	261.81
726.58	261.53
726.91	261.21
727.24	261.04
727.57	260.83
727.91	260.60
728.24	260.36
728.57	260.08
728.90	259.81
729.23	259.51
729.56	259.41
729.89	259.24
730.22	259.07
730.55	258.86
730.89	258.63
731.22	258.42
731.55	258.11
731.88	257.88
732.21	257.63
732.54	257.32
732.87	257.03
733.20	256.90
733.53	256.68
733.86	256.51
734.19	256.23
734.52	255.99
734.85	255.89
735.18	255.68
735.51	255.59
735.84	255.42
736.17	255.31
736.50	255.07
736.83	255.10
737.16	254.84
737.49	254.71
737.82	254.59
738.15	254.42
738.48	254.35
738.81	254.19
739.14	254.00
739.47	253.91
739.80	253.82
740.13	253.67
740.46	253.54
740.79	253.35
741.12	253.17
741.45	252.99
741.78	252.75
742.11	252.61
742.44	252.41
742.77	252.33
743.10	252.15
743.43	251.88
743.75	251.49
744.08	251.63
744.41	251.41
744.74	251.20
745.07	250.99
745.40	250.84
745.73	250.76
746.06	250.63
746.39	250.49
746.71	250.30
747.04	250.12
747.37	249.88
747.70	249.72
748.03	249.68
748.36	249.62
748.68	249.43
749.01	249.23
749.34	249.08
749.67	248.93
750.00	248.80
750.33	248.83
750.65	248.72
750.98	248.36
751.31	248.29
751.64	248.16
751.97	248.22
752.29	248.10
752.62	247.89
752.95	247.80
753.28	247.58
753.60	247.44
753.93	247.40
754.26	247.37
754.59	247.27
754.91	247.06
755.24	246.90
755.57	246.80
755.90	246.69
756.22	246.56
756.55	246.41
756.88	246.34
757.20	246.10
757.53	246.00
757.86	245.92
758.19	245.81
758.51	245.74
758.84	245.48
759.17	245.37
759.49	245.29
759.82	245.27
760.15	245.27
760.47	245.20
760.80	245.06
761.13	244.97
761.45	244.86
761.78	244.80
762.11	244.72
762.43	244.58
762.76	244.52
763.08	244.45
763.41	244.38
763.74	244.23
764.06	244.15
764.39	244.07
764.71	243.97
765.04	243.91
765.37	243.87
765.69	243.77
766.02	243.60
766.34	243.46
766.67	243.30
767.00	243.17
767.32	243.21
767.65	243.17
767.97	243.09
768.30	243.06
768.62	243.00
768.95	242.89
769.27	242.83
769.60	242.77
769.92	242.66
770.25	242.59
770.57	242.52
770.90	242.41
771.22	242.31
771.55	242.22
771.87	242.13
772.20	241.99
772.52	242.11
772.85	242.37
773.17	242.32
773.50	242.27
773.82	242.25
774.15	242.10
774.47	241.96
774.80	241.87
775.12	241.79
775.45	241.75
775.77	241.76
776.09	241.76
776.42	241.74
776.74	241.84
777.07	241.76
777.39	241.69
777.72	241.70
778.04	241.69
778.36	241.66
778.69	241.64
779.01	241.63
779.33	241.42
779.66	241.16
779.98	241.13
780.31	241.12
780.63	241.16
780.95	241.16
781.28	241.12
781.60	241.04
781.92	240.95
782.25	240.87
782.57	240.76
782.89	240.70
783.22	240.64
783.54	240.52
783.86	240.49
784.19	240.53
784.51	240.55
784.83	240.49
785.16	240.47
785.48	240.41
785.80	240.39
786.12	240.45
786.45	240.38
786.77	240.41
787.09	240.34
787.42	240.24
787.74	240.20
788.06	240.17
788.38	240.16
788.71	240.18
789.03	240.22
789.35	240.24
789.67	240.20
789.99	240.17
790.32	240.15
790.64	240.16
790.96	240.23
791.28	240.16
791.61	240.07
791.93	240.03
792.25	240.00
792.57	240.17
792.89	240.09
793.21	240.10
793.54	239.98
793.86	239.91
794.18	239.91
794.50	239.80
794.82	239.84
795.14	239.87
795.47	239.90
795.79	239.85
796.11	239.76
796.43	239.69
796.75	239.71
797.07	239.69
797.39	239.68
797.71	239.54
798.04	239.52
798.36	239.51
798.68	239.45
799.00	239.43
799.32	239.20
799.64	239.14
799.96	239.13
800.28	239.22
800.60	239.17
800.92	239.08
801.24	239.09
801.56	239.02
801.89	239.02
802.21	238.97
802.53	238.89
802.85	238.94
803.17	239.10
803.49	238.94
803.81	238.89
804.13	238.82
804.45	238.68
804.77	238.69
805.09	238.70
805.41	238.67
805.73	238.67
806.05	238.65
806.37	238.62
806.69	238.52
807.01	238.40
807.33	238.42
807.65	238.32
807.97	238.34
808.28	238.31
808.60	238.18
808.92	238.13
809.24	238.24
809.56	238.16
809.88	238.01
810.20	238.09
810.52	238.09
810.84	238.05
811.16	238.05
811.48	237.98
811.80	238.02
812.12	237.97
812.43	237.96
812.75	237.97
813.07	237.92
813.39	237.91
813.71	237.92
814.03	237.85
814.35	237.84
814.67	237.72
814.98	237.64
815.30	237.71
815.62	237.64
815.94	237.49
816.26	237.52
816.58	237.43
816.89	237.39
817.21	237.29
817.53	237.29
817.85	237.31
818.17	237.30
818.48	237.21
818.80	237.27
819.12	237.20
819.44	237.08
819.76	237.03
820.07	237.06
820.39	236.99
820.71	237.01
821.03	237.01
821.34	237.05
821.66	237.13
821.98	237.14
822.30	237.12
822.61	237.21
822.93	237.20
823.25	237.25
823.57	237.21
823.88	237.25
824.20	237.29
824.52	237.33
824.83	237.30
825.15	237.27
825.47	237.26
825.79	237.33
826.10	237.35
826.42	237.38
826.74	237.39
827.05	237.42
827.37	237.41
827.69	237.40
828.00	237.38
828.32	237.38
828.64	237.33
828.95	237.46
829.27	237.47
829.58	237.46
829.90	237.43
830.22	237.45
830.53	237.42
830.85	237.33
831.17	237.26
831.48	237.25
831.80	237.28
832.11	237.24
832.43	237.17
832.75	237.12
833.06	237.27
833.38	237.18
833.69	237.18
834.01	237.24
834.32	237.29
834.64	237.33
834.96	237.30
835.27	237.27
835.59	237.26
835.90	237.24
836.22	237.22
836.53	237.22
836.85	237.20
837.16	237.43
837.48	237.44
837.79	237.49
838.11	237.50
838.42	237.49
838.74	237.51
839.05	237.49
839.37	237.52
839.68	237.35
840.00	237.37
840.31	237.35
840.63	237.30
840.94	237.24
841.26	237.17
841.57	237.16
841.88	237.18
842.20	237.09
842.51	236.93
842.83	236.95
843.14	237.10
843.46	237.14
843.77	236.93
844.08	236.91
844.40	236.80
844.71	236.73
845.03	236.67
845.34	236.61
845.65	236.67
845.97	236.65
846.28	236.66
846.60	236.61
846.91	236.62
847.22	236.59
847.54	236.61
847.85	236.59
848.16	236.56
848.48	236.50
848.79	236.55
849.10	236.64
849.42	236.63
849.73	236.44
850.04	236.38
850.36	236.37
850.67	236.39
850.98	236.45
851.30	236.50
851.61	236.50
851.92	236.49
852.23	236.53
852.55	236.56
852.86	236.58
853.17	236.65
853.49	236.67
853.80	236.80
854.11	236.82
854.42	236.87
854.74	236.82
855.05	236.86
855.36	236.73
855.67	236.75
855.99	236.76
856.30	237.01
856.61	237.02
856.92	237.02
857.23	237.06
857.55	237.04
857.86	237.02
858.17	237.05
858.48	237.05
858.79	237.00
859.11	236.98
859.42	236.99
859.73	237.00
860.04	237.03
860.35	236.89
860.66	236.84
860.98	236.87
861.29	236.96
861.60	236.91
861.91	237.00
862.22	236.93
862.53	236.89
862.84	236.63
863.16	236.67
863.47	236.67
863.78	236.60
864.09	236.64
864.40	236.63
864.71	236.66
865.02	236.68
865.33	236.67
865.64	236.66
865.95	236.64
866.27	236.75
866.58	236.72
866.89	236.74
867.20	236.77
867.51	236.73
867.82	236.69
868.13	236.76
868.44	236.77
868.75	236.85
869.06	236.87
869.37	236.94
869.68	236.86
869.99	236.87
870.30	236.91
870.61	236.92
870.92	236.88
871.23	236.87
871.54	236.91
871.85	236.94
872.16	236.90
872.47	236.92
872.78	236.70
873.09	236.74
873.40	236.75
873.71	236.76
874.02	236.77
874.33	236.80
874.64	236.76
874.95	236.76
875.26	236.71
875.56	236.71
875.87	236.68
876.18	236.68
876.49	236.84
876.80	236.84
877.11	236.78
877.42	236.84
877.73	236.84
878.04	236.80
878.35	236.82
878.66	236.87
878.96	236.81
879.27	236.91
879.58	236.89
879.89	236.85
880.20	236.90
880.51	236.88
880.82	236.86
881.12	236.86
881.43	236.80
881.74	236.81
882.05	236.80
882.36	236.81
882.67	236.84
882.97	236.61
883.28	236.58
883.59	236.57
883.90	236.57
884.21	236.60
884.51	236.63
884.82	236.58
885.13	236.60
885.44	236.57
885.74	236.53
886.05	236.53
886.36	236.53
886.67	236.43
886.98	236.58
887.28	236.56
887.59	236.60
887.90	236.61
888.20	236.51
888.51	236.47
888.82	236.48
889.13	236.52
889.43	236.71
889.74	236.73
890.05	236.77
890.35	236.74
890.66	236.70
890.97	236.65
891.28	236.65
891.58	236.63
891.89	236.68
892.20	236.63
892.50	236.59
892.81	236.55
893.12	236.57
893.42	236.43
893.73	236.45
894.04	236.40
894.34	236.37
894.65	236.46
894.95	236.47
895.26	236.43
895.57	236.50
895.87	236.30
896.18	236.31
896.48	236.28
896.79	236.29
897.10	236.31
897.40	236.37
897.71	236.39
898.01	236.35
898.32	236.38
898.63	236.45
898.93	236.46
899.24	236.48
899.54	236.47
899.85	236.48
900.15	236.46
900.46	236.47
900.76	236.49
901.07	236.41
901.38	236.41
901.68	236.50
901.99	236.37
902.29	236.40
902.60	236.40
902.90	236.39
903.21	236.37
903.51	236.31
903.82	236.34
904.12	236.35
904.43	236.39
904.73	236.35
905.03	236.36
905.34	236.56
905.64	236.61
905.95	236.63
906.25	236.60
906.56	236.59
906.86	236.60
907.17	236.58
907.47	236.67
907.77	236.63
908.08	236.52
908.38	236.59
908.69	236.56
908.99	236.56
909.30	236.59
909.60	236.60
909.90	236.64
910.21	236.56
910.51	236.51
910.81	236.50
911.12	236.49
911.42	236.49
911.73	236.26
912.03	236.25
912.33	236.27
912.64	236.27
912.94	236.25
913.24	236.16
913.55	236.17
913.85	236.13
914.15	236.18
914.46	236.23
914.76	236.17
915.06	236.16
915.37	236.12
915.67	236.11
915.97	236.11
916.27	236.07
916.58	236.01
916.88	235.99
917.18	235.95
917.49	236.08
917.79	236.07
918.09	236.16
918.39	236.20
918.70	236.16
919.00	236.23
919.30	236.26
919.60	236.31
919.91	236.26
920.21	236.19
920.51	236.14
920.81	236.08
921.12	236.16
921.42	236.17
921.72	236.18
922.02	236.18
922.32	236.23
922.63	236.21
922.93	236.36
923.23	236.35
923.53	236.34
923.83	236.25
924.13	236.20
924.44	236.16
924.74	236.19
925.04	236.30
925.34	236.22
925.64	236.18
925.94	236.21
926.24	236.40
926.55	236.46
926.85	236.51
927.15	236.51
927.45	236.47
927.75	236.50
928.05	236.49
928.35	236.48
928.65	236.43
928.95	236.49
929.26	236.42
929.56	236.50
929.86	236.58
930.16	236.57
930.46	236.54
930.76	236.55
931.06	236.44
931.36	236.36
931.66	236.40
931.96	236.42
932.26	236.44
932.56	236.32
932.86	236.34
933.16	236.35
933.46	236.38
933.76	236.38
934.06	236.38
934.36	236.48
934.66	236.48
934.96	236.47
935.26	236.49
935.56	236.54
935.86	236.51
936.16	236.44
936.46	236.46
936.76	236.52
937.06	236.49
937.36	236.50
937.66	236.45
937.96	236.48
938.26	236.42
938.56	236.37
938.86	236.39
939.16	236.40
939.46	236.38
939.76	236.35
940.06	236.33
940.35	236.28
940.65	236.21
940.95	236.25
941.25	236.24
941.55	236.24
941.85	236.18
942.15	236.23
942.45	236.32
942.75	236.29
943.04	236.27
943.34	236.29
943.64	236.25
943.94	236.27
944.24	236.27
944.54	236.37
944.84	236.41
945.13	236.31
945.43	236.34
945.73	236.34
946.03	236.37
946.33	236.32
946.62	236.35
946.92	236.33
947.22	236.28
947.52	236.28
947.82	236.30
948.11	236.29
948.41	236.16
948.71	236.06
949.01	236.06
949.31	236.06
949.60	236.09
949.90	236.14
950.20	236.13
950.50	236.11
950.79	236.02
951.09	236.08
951.39	236.15
951.69	236.11
951.98	236.18
952.28	236.18
952.58	236.18
952.87	236.17
953.17	236.25
953.47	236.27
953.76	236.30
954.06	236.29
954.36	236.26
954.66	236.28
954.95	236.36
955.25	236.40
955.55	236.42
955.84	236.36
956.14	236.41
956.44	236.37
956.73	236.35
957.03	236.43
957.32	236.37
957.62	236.33
957.92	236.43
958.21	236.38
958.51	236.64
958.81	236.71
959.10	236.78
959.40	236.76
959.69	236.78
959.99	236.81
960.29	236.80
960.58	236.81
960.88	236.92
961.17	236.91
961.47	236.92
961.76	236.87
962.06	236.92
962.36	236.88
962.65	236.96
962.95	236.96
963.24	236.87
963.54	236.88
963.83	236.91
964.13	236.83
964.42	236.77
964.72	236.55
965.01	236.53
965.31	236.49
965.60	236.47
965.90	236.59
966.19	236.53
966.49	236.55
966.78	236.59
967.08	236.54
967.37	236.53
967.67	236.44
967.96	236.49
968.26	236.49
968.55	236.48
968.85	236.44
969.14	236.48
969.43	236.56
969.73	236.55
970.02	236.52
970.32	236.49
970.61	236.52
970.91	236.49
971.20	236.48
971.49	236.48
971.79	236.48
972.08	236.40
972.38	236.41
972.67	236.35
972.96	236.32
973.26	236.31
973.55	236.39
973.85	236.42
974.14	236.36
974.43	236.36
974.73	236.36
975.02	236.37
975.31	236.32
975.61	236.31
975.90	236.31
976.19	236.32
976.49	236.32
976.78	236.35
977.07	236.27
977.37	236.29
977.66	236.29
977.95	236.18
978.24	236.14
978.54	236.19
978.83	236.23
979.12	236.27
979.42	236.27
979.71	236.19
980.00	236.21
980.29	236.29
980.59	236.23
980.88	236.27
981.17	236.31
981.46	236.31
981.76	236.29
982.05	236.36
982.34	236.37
982.63	236.41
982.93	236.38
983.22	236.48
983.51	236.45
983.80	236.46
984.09	236.51
984.39	236.49
984.68	236.45
984.97	236.44
985.26	236.35
985.55	236.37
985.85	236.32
986.14	236.30
986.43	236.26
986.72	236.26
987.01	236.17
987.30	236.13
987.59	236.11
987.89	236.11
988.18	236.04
988.47	236.03
988.76	236.00
989.05	235.96
989.34	235.94
989.63	235.97
989.92	235.92
990.22	235.91
990.51	235.94
990.80	235.91
991.09	236.00
991.38	236.07
991.67	236.02
991.96	236.03
992.25	236.09
992.54	236.10
992.83	236.19
993.12	236.22
993.41	236.21
993.70	236.33
993.99	236.40
994.28	236.47
994.58	236.52
994.87	236.50
995.16	236.55
995.45	236.58
995.74	236.53
996.03	236.60
996.32	236.63
996.61	236.63
996.90	236.68
997.19	236.65
997.48	236.60
997.77	236.63
998.06	236.63
998.34	236.60
998.63	236.56
998.92	236.49
999.21	236.47
999.50	236.45
999.79	236.37
1000.08	236.34
1000.37	236.28
1000.66	236.23
1000.95	236.31
1001.24	236.28
1001.53	236.31
1001.82	236.35
1002.11	236.30
1002.40	236.36
1002.68	236.43
1002.97	236.51
1003.26	236.44
1003.55	236.46
1003.84	236.47
1004.13	236.57
1004.42	236.56
1004.71	236.57
1004.99	236.63
1005.28	236.69
1005.57	236.70
1005.86	236.67
1006.15	236.63
1006.44	236.60
1006.72	236.59
1007.01	236.52
1007.30	236.52
1007.59	236.43
1007.88	236.37
1008.17	236.40
1008.45	236.32
1008.74	236.23
1009.03	236.13
1009.32	236.12
1009.60	236.10
1009.89	236.03
1010.18	235.90
1010.47	235.88
1010.76	235.81
1011.04	235.75
1011.33	235.67
1011.62	235.72
1011.91	235.74
1012.19	235.75
1012.48	235.76
1012.77	235.73
1013.05	235.79
1013.34	235.81
1013.63	235.81
1013.92	235.85
1014.20	235.79
1014.49	235.83
1014.78	235.84
1015.06	235.81
1015.35	235.80
1015.64	235.79
1015.92	235.85
1016.21	235.92
1016.50	235.94
1016.78	235.98
1017.07	236.00
1017.36	236.04
1017.64	236.01
1017.93	236.01
1018.22	235.96
1018.50	235.94
1018.79	236.01
1019.08	235.98
1019.36	235.96
1019.65	235.92
1019.93	236.00
1020.22	236.01
1020.51	236.10
1020.79	236.06
1021.08	235.37
1021.36	235.23
1021.65	236.63
1021.94	236.43
1022.22	235.90
1022.51	235.23
1022.79	237.47
1023.08	235.90
1023.36	238.33
1023.65	235.50
>>>>>End Processed Spectral Data<<<<<
