"Storage 153729 - RawData - C:\Documents and Settings\user\My Documents\Adam_Hughes\11_5_12\25nm_np\NPConcentration\File_121105_153729.spc"
"Wavelength nm.","Abs."
400.00000,0.54359
400.50000,0.53964
401.00000,0.54370
401.50000,0.54373
402.00000,0.54189
402.50000,0.53964
403.00000,0.54250
403.50000,0.54250
404.00000,0.54018
404.50000,0.54008
405.00000,0.54233
405.50000,0.54280
406.00000,0.53545
406.50000,0.53938
407.00000,0.53708
407.50000,0.53448
408.00000,0.53320
408.50000,0.53358
409.00000,0.52997
409.50000,0.53285
410.00000,0.53438
410.50000,0.53322
411.00000,0.53162
411.50000,0.53494
412.00000,0.52936
412.50000,0.52440
413.00000,0.52837
413.50000,0.52774
414.00000,0.52516
414.50000,0.52579
415.00000,0.52632
415.50000,0.52811
416.00000,0.52609
416.50000,0.53133
417.00000,0.52739
417.50000,0.52951
418.00000,0.52597
418.50000,0.52702
419.00000,0.52632
419.50000,0.52631
420.00000,0.52652
420.50000,0.52538
421.00000,0.52399
421.50000,0.52408
422.00000,0.52840
422.50000,0.53029
423.00000,0.52718
423.50000,0.52461
424.00000,0.52237
424.50000,0.52432
425.00000,0.52242
425.50000,0.52054
426.00000,0.52367
426.50000,0.52255
427.00000,0.51993
427.50000,0.51949
428.00000,0.52153
428.50000,0.51968
429.00000,0.52292
429.50000,0.51929
430.00000,0.51828
430.50000,0.51941
431.00000,0.52054
431.50000,0.51608
432.00000,0.51392
432.50000,0.51895
433.00000,0.52071
433.50000,0.52193
434.00000,0.52086
434.50000,0.51936
435.00000,0.51738
435.50000,0.51872
436.00000,0.52010
436.50000,0.51859
437.00000,0.52242
437.50000,0.51804
438.00000,0.52052
438.50000,0.51761
439.00000,0.52008
439.50000,0.51819
440.00000,0.51724
440.50000,0.51715
441.00000,0.51723
441.50000,0.51830
442.00000,0.51593
442.50000,0.51469
443.00000,0.51680
443.50000,0.51469
444.00000,0.51509
444.50000,0.51526
445.00000,0.51767
445.50000,0.51765
446.00000,0.51996
446.50000,0.52020
447.00000,0.51955
447.50000,0.52164
448.00000,0.51831
448.50000,0.51872
449.00000,0.52110
449.50000,0.51794
450.00000,0.51848
450.50000,0.52209
451.00000,0.52225
451.50000,0.52115
452.00000,0.52005
452.50000,0.52054
453.00000,0.51703
453.50000,0.52151
454.00000,0.51701
454.50000,0.51973
455.00000,0.52106
455.50000,0.52486
456.00000,0.52766
456.50000,0.52509
457.00000,0.52486
457.50000,0.52324
458.00000,0.52504
458.50000,0.52414
459.00000,0.52228
459.50000,0.52475
460.00000,0.52550
460.50000,0.52757
461.00000,0.53053
461.50000,0.52893
462.00000,0.52904
462.50000,0.52881
463.00000,0.53221
463.50000,0.53183
464.00000,0.53448
464.50000,0.53468
465.00000,0.53783
465.50000,0.53976
466.00000,0.53609
466.50000,0.54060
467.00000,0.53798
467.50000,0.54134
468.00000,0.53902
468.50000,0.53978
469.00000,0.54309
469.50000,0.54861
470.00000,0.54716
470.50000,0.54974
471.00000,0.55011
471.50000,0.55188
472.00000,0.55295
472.50000,0.55200
473.00000,0.55479
473.50000,0.55484
474.00000,0.55821
474.50000,0.55780
475.00000,0.55884
475.50000,0.56076
476.00000,0.56328
476.50000,0.56674
477.00000,0.56770
477.50000,0.56992
478.00000,0.57018
478.50000,0.57532
479.00000,0.57741
479.50000,0.57898
480.00000,0.58246
480.50000,0.58597
481.00000,0.58740
481.50000,0.58829
482.00000,0.59462
482.50000,0.59648
483.00000,0.59943
483.50000,0.60260
484.00000,0.60876
484.50000,0.60931
485.00000,0.61041
485.50000,0.61473
486.00000,0.62050
486.50000,0.62405
487.00000,0.62610
487.50000,0.63078
488.00000,0.63168
488.50000,0.63678
489.00000,0.64392
489.50000,0.64963
490.00000,0.65279
490.50000,0.65829
491.00000,0.66203
491.50000,0.66650
492.00000,0.67017
492.50000,0.67520
493.00000,0.67892
493.50000,0.68556
494.00000,0.69026
494.50000,0.69411
495.00000,0.70317
495.50000,0.70726
496.00000,0.71420
496.50000,0.72063
497.00000,0.72754
497.50000,0.73384
498.00000,0.73932
498.50000,0.74377
499.00000,0.74878
499.50000,0.75871
500.00000,0.76202
500.50000,0.77029
501.00000,0.77382
501.50000,0.78160
502.00000,0.78937
502.50000,0.79413
503.00000,0.80078
503.50000,0.80573
504.00000,0.81407
504.50000,0.81969
505.00000,0.82637
505.50000,0.83235
506.00000,0.83844
506.50000,0.84523
507.00000,0.84998
507.50000,0.85904
508.00000,0.86169
508.50000,0.86783
509.00000,0.87457
509.50000,0.88124
510.00000,0.88748
510.50000,0.89159
511.00000,0.89577
511.50000,0.90086
512.00000,0.90984
512.50000,0.91301
513.00000,0.91644
513.50000,0.92230
514.00000,0.92677
514.50000,0.93079
515.00000,0.93607
515.50000,0.94116
516.00000,0.94157
516.50000,0.94514
517.00000,0.95238
517.50000,0.95195
518.00000,0.95804
518.50000,0.95967
519.00000,0.96465
519.50000,0.96581
520.00000,0.96581
520.50000,0.96907
521.00000,0.96982
521.50000,0.97336
522.00000,0.97536
522.50000,0.97343
523.00000,0.97287
523.50000,0.97192
524.00000,0.97318
524.50000,0.97461
525.00000,0.97336
525.50000,0.97701
526.00000,0.96870
526.50000,0.96877
527.00000,0.96716
527.50000,0.96735
528.00000,0.96220
528.50000,0.95912
529.00000,0.95450
529.50000,0.95540
530.00000,0.95160
530.50000,0.94632
531.00000,0.94272
531.50000,0.94157
532.00000,0.93938
532.50000,0.93489
533.00000,0.92865
533.50000,0.92671
534.00000,0.91725
534.50000,0.91168
535.00000,0.90741
535.50000,0.90103
536.00000,0.89912
536.50000,0.89281
537.00000,0.88644
537.50000,0.88089
538.00000,0.87251
538.50000,0.86574
539.00000,0.86086
539.50000,0.85242
540.00000,0.84608
540.50000,0.83926
541.00000,0.83133
541.50000,0.82584
542.00000,0.81824
542.50000,0.80795
543.00000,0.80305
543.50000,0.79285
544.00000,0.78622
544.50000,0.77513
545.00000,0.77063
545.50000,0.76433
546.00000,0.75404
546.50000,0.74619
547.00000,0.73677
547.50000,0.73077
548.00000,0.71974
548.50000,0.71201
549.00000,0.70601
549.50000,0.69341
550.00000,0.68857
550.50000,0.67909
551.00000,0.67107
551.50000,0.66217
552.00000,0.65393
552.50000,0.64590
553.00000,0.63731
553.50000,0.63113
554.00000,0.62262
554.50000,0.61531
555.00000,0.60844
555.50000,0.59869
556.00000,0.58968
556.50000,0.58379
557.00000,0.57553
557.50000,0.56787
558.00000,0.55948
558.50000,0.55467
559.00000,0.54654
559.50000,0.53998
560.00000,0.53435
560.50000,0.52802
561.00000,0.52086
561.50000,0.51479
562.00000,0.50728
562.50000,0.50066
563.00000,0.49352
563.50000,0.48907
564.00000,0.48053
564.50000,0.47469
565.00000,0.46986
565.50000,0.46536
566.00000,0.45793
566.50000,0.44962
567.00000,0.44431
567.50000,0.44080
568.00000,0.43494
568.50000,0.42783
569.00000,0.42317
569.50000,0.41319
570.00000,0.40903
570.50000,0.40257
571.00000,0.39923
571.50000,0.39301
572.00000,0.39027
572.50000,0.38458
573.00000,0.37875
573.50000,0.37547
574.00000,0.37003
574.50000,0.36391
575.00000,0.36084
575.50000,0.35472
576.00000,0.35109
576.50000,0.34515
577.00000,0.34122
577.50000,0.33662
578.00000,0.33369
578.50000,0.32759
579.00000,0.32602
579.50000,0.32060
580.00000,0.31729
580.50000,0.31299
581.00000,0.30972
581.50000,0.30533
582.00000,0.30336
582.50000,0.30049
583.00000,0.29410
583.50000,0.29050
584.00000,0.28720
584.50000,0.28375
585.00000,0.28065
585.50000,0.27638
586.00000,0.27519
586.50000,0.27228
587.00000,0.27100
587.50000,0.26727
588.00000,0.26280
588.50000,0.25964
589.00000,0.25667
589.50000,0.25433
590.00000,0.25217
590.50000,0.24890
591.00000,0.24593
591.50000,0.24304
592.00000,0.24008
592.50000,0.23856
593.00000,0.23441
593.50000,0.23204
594.00000,0.22900
594.50000,0.22842
595.00000,0.22549
595.50000,0.22353
596.00000,0.22052
596.50000,0.21855
597.00000,0.21707
597.50000,0.21570
598.00000,0.21309
598.50000,0.21048
599.00000,0.21077
599.50000,0.20805
600.00000,0.20508
600.50000,0.20377
601.00000,0.19968
601.50000,0.19749
602.00000,0.19702
602.50000,0.19504
603.00000,0.19545
603.50000,0.19260
604.00000,0.19014
604.50000,0.18832
605.00000,0.18636
605.50000,0.18475
606.00000,0.18474
606.50000,0.18231
607.00000,0.18080
607.50000,0.17998
608.00000,0.17836
608.50000,0.17737
609.00000,0.17561
609.50000,0.17496
610.00000,0.17296
610.50000,0.17174
611.00000,0.16992
611.50000,0.16922
612.00000,0.16864
612.50000,0.16675
613.00000,0.16660
613.50000,0.16397
614.00000,0.16396
614.50000,0.16206
615.00000,0.15945
615.50000,0.15866
616.00000,0.15938
616.50000,0.15732
617.00000,0.15561
617.50000,0.15511
618.00000,0.15250
618.50000,0.15250
619.00000,0.15147
619.50000,0.15111
620.00000,0.14897
620.50000,0.14867
621.00000,0.14610
621.50000,0.14641
622.00000,0.14420
622.50000,0.14268
623.00000,0.14233
623.50000,0.14146
624.00000,0.14114
624.50000,0.13860
625.00000,0.13895
625.50000,0.13824
626.00000,0.13814
626.50000,0.13681
627.00000,0.13637
627.50000,0.13568
628.00000,0.13257
628.50000,0.13069
629.00000,0.13132
629.50000,0.12885
630.00000,0.12816
630.50000,0.12807
631.00000,0.12723
631.50000,0.12611
632.00000,0.12587
632.50000,0.12427
633.00000,0.12498
633.50000,0.12480
634.00000,0.12289
634.50000,0.12375
635.00000,0.12242
635.50000,0.12225
636.00000,0.12047
636.50000,0.11911
637.00000,0.11998
637.50000,0.11839
638.00000,0.11612
638.50000,0.11626
639.00000,0.11525
639.50000,0.11578
640.00000,0.11453
640.50000,0.11345
641.00000,0.11353
641.50000,0.11212
642.00000,0.11107
642.50000,0.11211
643.00000,0.11009
643.50000,0.11012
644.00000,0.11049
644.50000,0.10889
645.00000,0.10907
645.50000,0.10803
646.00000,0.10957
646.50000,0.10657
647.00000,0.10774
647.50000,0.10509
648.00000,0.10292
648.50000,0.10362
649.00000,0.10258
649.50000,0.10420
650.00000,0.10143
650.50000,0.09958
651.00000,0.09859
651.50000,0.09923
652.00000,0.09779
652.50000,0.09879
653.00000,0.09885
653.50000,0.09702
654.00000,0.09590
654.50000,0.09453
655.00000,0.09404
655.50000,0.09375
656.00000,0.09366
656.50000,0.09349
657.00000,0.09184
657.50000,0.09215
658.00000,0.09186
658.50000,0.09065
659.00000,0.09140
659.50000,0.08937
660.00000,0.09070
660.50000,0.08952
661.00000,0.08853
661.50000,0.08836
662.00000,0.08609
662.50000,0.08420
663.00000,0.08429
663.50000,0.08423
664.00000,0.08403
664.50000,0.08430
665.00000,0.08281
665.50000,0.08371
666.00000,0.08258
666.50000,0.08286
667.00000,0.08177
667.50000,0.08200
668.00000,0.08240
668.50000,0.08089
669.00000,0.07979
669.50000,0.08081
670.00000,0.07887
670.50000,0.08029
671.00000,0.07930
671.50000,0.07707
672.00000,0.07628
672.50000,0.07591
673.00000,0.07686
673.50000,0.07629
674.00000,0.07610
674.50000,0.07425
675.00000,0.07388
675.50000,0.07425
676.00000,0.07118
676.50000,0.07201
677.00000,0.07204
677.50000,0.07208
678.00000,0.07246
678.50000,0.07381
679.00000,0.07083
679.50000,0.07019
680.00000,0.07072
680.50000,0.06970
681.00000,0.07025
681.50000,0.07083
682.00000,0.06940
682.50000,0.06877
683.00000,0.06644
683.50000,0.06448
684.00000,0.06526
684.50000,0.06586
685.00000,0.06631
685.50000,0.06499
686.00000,0.06413
686.50000,0.06441
687.00000,0.06453
687.50000,0.06352
688.00000,0.06580
688.50000,0.06248
689.00000,0.06244
689.50000,0.06381
690.00000,0.06146
690.50000,0.06068
691.00000,0.06104
691.50000,0.05995
692.00000,0.06157
692.50000,0.06056
693.00000,0.05916
693.50000,0.05742
694.00000,0.05804
694.50000,0.05736
695.00000,0.05742
695.50000,0.05836
696.00000,0.06023
696.50000,0.06085
697.00000,0.05669
697.50000,0.05855
698.00000,0.05771
698.50000,0.05742
699.00000,0.05542
699.50000,0.05501
700.00000,0.05531
700.50000,0.05580
701.00000,0.05470
701.50000,0.05312
702.00000,0.05403
702.50000,0.05333
703.00000,0.05307
703.50000,0.05356
704.00000,0.05336
704.50000,0.05370
705.00000,0.05199
705.50000,0.05214
706.00000,0.05180
706.50000,0.05292
707.00000,0.05295
707.50000,0.05086
708.00000,0.05223
708.50000,0.05228
709.00000,0.05362
709.50000,0.05070
710.00000,0.04996
710.50000,0.04851
711.00000,0.04570
711.50000,0.04753
712.00000,0.04720
712.50000,0.04655
713.00000,0.04689
713.50000,0.04753
714.00000,0.04642
714.50000,0.04889
715.00000,0.04729
715.50000,0.04698
716.00000,0.04701
716.50000,0.04608
717.00000,0.04482
717.50000,0.04393
718.00000,0.04521
718.50000,0.04608
719.00000,0.04623
719.50000,0.04637
720.00000,0.04610
720.50000,0.04584
721.00000,0.04358
721.50000,0.04417
722.00000,0.04303
722.50000,0.04367
723.00000,0.04306
723.50000,0.04349
724.00000,0.04306
724.50000,0.04503
725.00000,0.04364
725.50000,0.04355
726.00000,0.04480
726.50000,0.04340
727.00000,0.04329
727.50000,0.04282
728.00000,0.04124
728.50000,0.04143
729.00000,0.04053
729.50000,0.04042
730.00000,0.04192
730.50000,0.04224
731.00000,0.03940
731.50000,0.04002
732.00000,0.03961
732.50000,0.03960
733.00000,0.03854
733.50000,0.03865
734.00000,0.04012
734.50000,0.04160
735.00000,0.04002
735.50000,0.04085
736.00000,0.04135
736.50000,0.03914
737.00000,0.03679
737.50000,0.03592
738.00000,0.03502
738.50000,0.03519
739.00000,0.03702
739.50000,0.03984
740.00000,0.03827
740.50000,0.03851
741.00000,0.03598
741.50000,0.03716
742.00000,0.03448
742.50000,0.03568
743.00000,0.03584
743.50000,0.03502
744.00000,0.03813
744.50000,0.03792
745.00000,0.03610
745.50000,0.03430
746.00000,0.03397
746.50000,0.03230
747.00000,0.03673
747.50000,0.03445
748.00000,0.03635
748.50000,0.03510
749.00000,0.03418
749.50000,0.03459
750.00000,0.03448
750.50000,0.03105
751.00000,0.03360
751.50000,0.03204
752.00000,0.03271
752.50000,0.03278
753.00000,0.03391
753.50000,0.03256
754.00000,0.03224
754.50000,0.03149
755.00000,0.03221
755.50000,0.03481
756.00000,0.03130
756.50000,0.03300
757.00000,0.03195
757.50000,0.03261
758.00000,0.03365
758.50000,0.03270
759.00000,0.03062
759.50000,0.02933
760.00000,0.03117
760.50000,0.03334
761.00000,0.03009
761.50000,0.03024
762.00000,0.02884
762.50000,0.03310
763.00000,0.03404
763.50000,0.03394
764.00000,0.03229
764.50000,0.03149
765.00000,0.03081
765.50000,0.03027
766.00000,0.02757
766.50000,0.02821
767.00000,0.02948
767.50000,0.02939
768.00000,0.02962
768.50000,0.03094
769.00000,0.02942
769.50000,0.02899
770.00000,0.02766
770.50000,0.02872
771.00000,0.03096
771.50000,0.02614
772.00000,0.02696
772.50000,0.02748
773.00000,0.02748
773.50000,0.02806
774.00000,0.02785
774.50000,0.02730
775.00000,0.02557
775.50000,0.02573
776.00000,0.02567
776.50000,0.02626
777.00000,0.02812
777.50000,0.02728
778.00000,0.03035
778.50000,0.02786
779.00000,0.02704
779.50000,0.02776
780.00000,0.02887
780.50000,0.02888
781.00000,0.02708
781.50000,0.02640
782.00000,0.02684
782.50000,0.02867
783.00000,0.02837
783.50000,0.02554
784.00000,0.02734
784.50000,0.02887
785.00000,0.02606
785.50000,0.02774
786.00000,0.02757
786.50000,0.02690
787.00000,0.02864
787.50000,0.02908
788.00000,0.02629
788.50000,0.02811
789.00000,0.02678
789.50000,0.02483
790.00000,0.02647
790.50000,0.02728
791.00000,0.02435
791.50000,0.02817
792.00000,0.02789
792.50000,0.02753
793.00000,0.02846
793.50000,0.02602
794.00000,0.02335
794.50000,0.02722
795.00000,0.02361
795.50000,0.02332
796.00000,0.02385
796.50000,0.02376
797.00000,0.02516
797.50000,0.02371
798.00000,0.02641
798.50000,0.02756
799.00000,0.02280
799.50000,0.02258
800.00000,0.02414
800.50000, 
801.00000, 
801.50000, 
802.00000, 
802.50000, 
803.00000, 
803.50000, 
804.00000, 
804.50000, 
805.00000, 
805.50000, 
806.00000, 
806.50000, 
807.00000, 
807.50000, 
808.00000, 
808.50000, 
809.00000, 
809.50000, 
810.00000, 
810.50000, 
811.00000, 
811.50000, 
812.00000, 
812.50000, 
813.00000, 
813.50000, 
814.00000, 
814.50000, 
815.00000, 
815.50000, 
816.00000, 
816.50000, 
817.00000, 
817.50000, 
818.00000, 
818.50000, 
819.00000, 
819.50000, 
820.00000, 
820.50000, 
821.00000, 
821.50000, 
822.00000, 
822.50000, 
823.00000, 
823.50000, 
824.00000, 
824.50000, 
825.00000, 
825.50000, 
826.00000, 
826.50000, 
827.00000, 
827.50000, 
828.00000, 
828.50000, 
829.00000, 
829.50000, 
830.00000, 
830.50000, 
831.00000, 
831.50000, 
832.00000, 
832.50000, 
833.00000, 
833.50000, 
834.00000, 
834.50000, 
835.00000, 
835.50000, 
836.00000, 
836.50000, 
837.00000, 
837.50000, 
838.00000, 
838.50000, 
839.00000, 
839.50000, 
840.00000, 
840.50000, 
841.00000, 
841.50000, 
842.00000, 
842.50000, 
843.00000, 
843.50000, 
844.00000, 
844.50000, 
845.00000, 
845.50000, 
846.00000, 
846.50000, 
847.00000, 
847.50000, 
848.00000, 
848.50000, 
849.00000, 
849.50000, 
850.00000, 
850.50000, 
851.00000, 
851.50000, 
852.00000, 
852.50000, 
853.00000, 
853.50000, 
854.00000, 
854.50000, 
855.00000, 
855.50000, 
856.00000, 
856.50000, 
857.00000, 
857.50000, 
858.00000, 
858.50000, 
859.00000, 
859.50000, 
860.00000, 
860.50000, 
861.00000, 
861.50000, 
862.00000, 
862.50000, 
863.00000, 
863.50000, 
864.00000, 
864.50000, 
865.00000, 
865.50000, 
866.00000, 
866.50000, 
867.00000, 
867.50000, 
868.00000, 
868.50000, 
869.00000, 
869.50000, 
870.00000, 
870.50000, 
871.00000, 
871.50000, 
872.00000, 
872.50000, 
873.00000, 
873.50000, 
874.00000, 
874.50000, 
875.00000, 
875.50000, 
876.00000, 
876.50000, 
877.00000, 
877.50000, 
878.00000, 
878.50000, 
879.00000, 
879.50000, 
880.00000, 
880.50000, 
881.00000, 
881.50000, 
882.00000, 
882.50000, 
883.00000, 
883.50000, 
884.00000, 
884.50000, 
885.00000, 
885.50000, 
886.00000, 
886.50000, 
887.00000, 
887.50000, 
888.00000, 
888.50000, 
889.00000, 
889.50000, 
890.00000, 
890.50000, 
891.00000, 
891.50000, 
892.00000, 
892.50000, 
893.00000, 
893.50000, 
894.00000, 
894.50000, 
895.00000, 
895.50000, 
896.00000, 
896.50000, 
897.00000, 
897.50000, 
898.00000, 
898.50000, 
899.00000, 
899.50000, 
900.00000, 
