SpectraSuite Data File
++++++++++++++++++++++++++++++++++++
Date: Mon Oct 22 15:13:53 EDT 2012
User: group
Dark Spectrum Present: No
Reference Spectrum Present: No
Number of Sampled Component Spectra: 1
Spectrometers: USB2E7196
Integration Time (usec): 91000 (USB2E7196)
Spectra Averaged: 30 (USB2E7196)
Boxcar Smoothing: 10 (USB2E7196)
Correct for Electrical Dark: No (USB2E7196)
Strobe/Lamp Enabled: No (USB2E7196)
Correct for Detector Non-linearity: No (USB2E7196)
Correct for Stray Light: No (USB2E7196)
Number of Pixels in Processed Spectrum: 2048
>>>>>Begin Processed Spectral Data<<<<<
339.09	0.00
339.48	225.50
339.86	226.20
340.24	226.87
340.63	228.53
341.01	233.10
341.39	231.60
341.78	233.70
342.16	235.17
342.54	235.83
342.93	223.13
343.31	234.40
343.69	234.95
344.07	235.42
344.46	235.88
344.84	236.29
345.22	236.46
345.60	236.76
345.99	236.85
346.37	236.88
346.75	236.95
347.13	236.98
347.52	237.04
347.90	237.15
348.28	237.11
348.66	237.09
349.05	237.02
349.43	237.11
349.81	237.11
350.19	237.10
350.57	237.13
350.96	237.20
351.34	237.31
351.72	237.33
352.10	237.39
352.48	237.44
352.87	237.44
353.25	237.50
353.63	237.49
354.01	237.62
354.39	237.77
354.77	237.79
355.15	237.91
355.54	237.94
355.92	237.93
356.30	237.97
356.68	238.14
357.06	238.16
357.44	238.12
357.82	238.16
358.20	238.24
358.58	238.32
358.97	238.32
359.35	238.36
359.73	238.44
360.11	238.47
360.49	238.50
360.87	238.57
361.25	238.62
361.63	238.77
362.01	238.77
362.39	238.74
362.77	238.77
363.15	238.72
363.53	238.70
363.91	238.74
364.29	238.80
364.67	238.63
365.05	238.66
365.43	238.69
365.81	238.75
366.19	238.79
366.57	238.83
366.95	238.86
367.33	238.77
367.71	238.73
368.09	238.73
368.47	238.72
368.85	238.67
369.23	238.72
369.61	238.59
369.99	238.67
370.37	238.64
370.75	238.78
371.13	238.80
371.51	238.77
371.89	238.75
372.27	238.70
372.65	238.63
373.03	238.61
373.41	238.58
373.78	238.54
374.16	238.46
374.54	238.35
374.92	238.31
375.30	238.33
375.68	238.30
376.06	238.31
376.44	238.26
376.82	238.21
377.19	238.13
377.57	238.10
377.95	237.97
378.33	237.97
378.71	237.77
379.09	237.72
379.47	237.77
379.84	237.71
380.22	237.60
380.60	237.53
380.98	237.46
381.36	237.45
381.73	237.40
382.11	237.37
382.49	237.29
382.87	237.19
383.25	237.13
383.62	237.27
384.00	237.22
384.38	237.24
384.76	237.26
385.13	237.34
385.51	237.29
385.89	237.23
386.27	237.18
386.64	237.15
387.02	237.12
387.40	237.02
387.78	237.02
388.15	237.01
388.53	237.05
388.91	237.05
389.29	236.97
389.66	236.96
390.04	236.94
390.42	236.96
390.79	236.89
391.17	236.92
391.55	236.71
391.92	236.66
392.30	236.65
392.68	236.58
393.05	236.49
393.43	236.50
393.81	236.46
394.18	236.41
394.56	236.46
394.94	236.53
395.31	236.51
395.69	236.58
396.06	236.71
396.44	236.75
396.82	236.79
397.19	236.93
397.57	236.95
397.95	237.00
398.32	237.02
398.70	237.12
399.07	237.18
399.45	237.21
399.82	237.30
400.20	237.37
400.58	237.51
400.95	237.56
401.33	237.70
401.70	238.03
402.08	238.18
402.45	238.25
402.83	238.40
403.20	238.55
403.58	238.66
403.95	238.85
404.33	239.02
404.71	239.20
405.08	239.53
405.46	239.77
405.83	240.02
406.21	240.27
406.58	240.60
406.96	240.93
407.33	241.31
407.70	241.65
408.08	242.18
408.45	242.63
408.83	243.10
409.20	243.54
409.58	243.93
409.95	244.53
410.33	245.20
410.70	245.85
411.08	246.61
411.45	247.38
411.82	248.10
412.20	249.05
412.57	250.06
412.95	250.87
413.32	251.99
413.69	253.06
414.07	254.32
414.44	255.62
414.82	256.93
415.19	258.49
415.56	260.21
415.94	261.89
416.31	263.80
416.68	265.82
417.06	268.09
417.43	270.23
417.81	272.64
418.18	275.09
418.55	277.73
418.93	280.56
419.30	283.53
419.67	286.65
420.04	289.83
420.42	293.33
420.79	297.29
421.16	301.17
421.54	305.32
421.91	309.51
422.28	313.91
422.66	318.72
423.03	323.26
423.40	328.04
423.77	333.21
424.15	338.53
424.52	344.05
424.89	350.07
425.26	355.95
425.64	361.68
426.01	367.93
426.38	374.45
426.75	381.09
427.13	387.92
427.50	395.20
427.87	402.79
428.24	410.31
428.61	417.67
428.99	425.70
429.36	434.39
429.73	443.13
430.10	451.82
430.47	460.75
430.85	470.20
431.22	480.00
431.59	490.38
431.96	500.45
432.33	511.50
432.70	522.31
433.08	534.98
433.45	546.87
433.82	558.79
434.19	572.11
434.56	584.97
434.93	597.61
435.30	610.20
435.68	624.14
436.05	637.84
436.42	651.54
436.79	664.22
437.16	677.96
437.53	692.20
437.90	706.65
438.27	720.67
438.64	735.16
439.01	748.76
439.38	761.16
439.75	773.12
440.13	786.61
440.50	799.14
440.87	809.61
441.24	820.62
441.61	832.43
441.98	841.34
442.35	851.96
442.72	862.36
443.09	872.24
443.46	878.42
443.83	882.84
444.20	886.87
444.57	892.27
444.94	894.87
445.31	897.77
445.68	899.98
446.05	901.35
446.42	900.59
446.79	899.30
447.16	897.52
447.53	896.19
447.90	891.26
448.27	886.39
448.64	879.29
449.01	873.97
449.37	864.91
449.74	856.15
450.11	845.35
450.48	833.90
450.85	822.17
451.22	812.26
451.59	802.85
451.96	793.68
452.33	781.60
452.70	770.86
453.07	757.80
453.43	744.70
453.80	731.80
454.17	719.47
454.54	708.01
454.91	695.84
455.28	683.88
455.65	672.70
456.02	661.39
456.38	652.19
456.75	640.47
457.12	630.92
457.49	621.28
457.86	612.17
458.23	604.12
458.59	595.50
458.96	586.67
459.33	578.86
459.70	570.91
460.07	564.60
460.43	557.30
460.80	550.44
461.17	544.41
461.54	538.34
461.91	532.35
462.27	526.27
462.64	521.23
463.01	515.66
463.38	510.29
463.74	505.00
464.11	500.12
464.48	496.01
464.85	491.41
465.21	488.02
465.58	484.26
465.95	479.88
466.32	476.32
466.68	472.67
467.05	468.95
467.42	465.36
467.78	461.53
468.15	457.82
468.52	455.08
468.88	451.74
469.25	448.65
469.62	446.22
469.98	443.56
470.35	440.94
470.72	438.52
471.08	435.87
471.45	433.75
471.82	431.42
472.18	428.86
472.55	427.18
472.92	425.15
473.28	423.43
473.65	421.74
474.02	419.93
474.38	418.52
474.75	417.39
475.11	416.14
475.48	415.22
475.85	414.52
476.21	413.81
476.58	413.13
476.94	412.50
477.31	411.88
477.67	411.27
478.04	410.95
478.41	410.75
478.77	410.84
479.14	410.62
479.50	410.67
479.87	411.13
480.23	411.41
480.60	411.55
480.96	411.84
481.33	412.47
481.69	413.11
482.06	413.64
482.42	414.08
482.79	414.68
483.15	415.57
483.52	416.69
483.88	417.74
484.25	418.85
484.61	420.13
484.98	421.46
485.34	423.15
485.71	424.80
486.07	426.61
486.44	428.05
486.80	429.97
487.17	432.14
487.53	434.19
487.90	436.49
488.26	438.84
488.62	441.25
488.99	443.63
489.35	446.13
489.72	448.94
490.08	452.04
490.44	455.03
490.81	458.18
491.17	461.33
491.54	464.79
491.90	468.28
492.26	471.94
492.63	475.70
492.99	479.36
493.36	483.23
493.72	487.32
494.08	491.50
494.45	495.88
494.81	500.37
495.17	504.96
495.54	509.61
495.90	514.54
496.26	519.33
496.63	524.39
496.99	529.76
497.35	535.13
497.72	540.55
498.08	546.20
498.44	551.73
498.80	557.59
499.17	563.28
499.53	569.10
499.89	575.11
500.26	581.12
500.62	587.18
500.98	593.52
501.34	599.79
501.71	606.37
502.07	612.80
502.43	619.16
502.79	625.62
503.16	632.21
503.52	638.76
503.88	645.57
504.24	651.96
504.60	658.30
504.97	664.82
505.33	671.25
505.69	678.00
506.05	684.49
506.41	690.93
506.78	697.47
507.14	704.03
507.50	710.61
507.86	717.14
508.22	723.59
508.59	729.72
508.95	735.80
509.31	742.05
509.67	748.12
510.03	753.98
510.39	759.95
510.75	765.80
511.12	771.30
511.48	776.69
511.84	782.46
512.20	787.78
512.56	793.04
512.92	798.14
513.28	803.04
513.64	807.90
514.00	812.35
514.37	816.51
514.73	820.82
515.09	824.61
515.45	828.41
515.81	831.90
516.17	835.43
516.53	838.70
516.89	841.92
517.25	844.93
517.61	848.09
517.97	850.74
518.33	853.09
518.69	855.55
519.05	857.80
519.41	859.67
519.77	861.68
520.13	863.43
520.49	864.97
520.85	866.22
521.21	867.75
521.57	869.26
521.93	870.28
522.29	870.99
522.65	871.63
523.01	872.10
523.37	872.64
523.73	872.94
524.09	873.12
524.45	872.72
524.81	872.55
525.17	872.29
525.53	871.90
525.89	871.42
526.25	870.93
526.61	870.29
526.97	869.70
527.33	869.22
527.68	868.85
528.04	868.26
528.40	867.25
528.76	866.19
529.12	865.05
529.48	864.45
529.84	863.34
530.20	862.55
530.56	861.57
530.91	860.74
531.27	859.98
531.63	859.37
531.99	858.72
532.35	857.68
532.71	856.45
533.07	855.57
533.42	854.82
533.78	853.89
534.14	853.09
534.50	852.11
534.86	851.38
535.21	849.97
535.57	849.02
535.93	848.05
536.29	847.32
536.65	846.63
537.00	845.92
537.36	845.47
537.72	844.74
538.08	844.33
538.44	843.53
538.79	842.85
539.15	841.96
539.51	841.63
539.87	841.52
540.22	841.01
540.58	840.81
540.94	840.38
541.29	840.10
541.65	839.62
542.01	839.69
542.37	839.01
542.72	838.83
543.08	838.40
543.44	838.39
543.79	837.75
544.15	837.50
544.51	837.32
544.87	837.20
545.22	837.22
545.58	837.12
545.94	837.14
546.29	836.76
546.65	836.55
547.01	836.11
547.36	835.88
547.72	835.95
548.07	835.75
548.43	835.59
548.79	835.57
549.14	835.59
549.50	835.80
549.86	836.26
550.21	836.47
550.57	836.95
550.92	837.36
551.28	837.96
551.64	838.05
551.99	838.27
552.35	838.66
552.70	839.09
553.06	839.31
553.41	839.80
553.77	840.67
554.13	841.37
554.48	842.20
554.84	842.92
555.19	843.97
555.55	845.16
555.90	846.21
556.26	847.24
556.61	848.33
556.97	848.71
557.32	849.66
557.68	850.80
558.03	852.00
558.39	853.15
558.74	854.36
559.10	855.80
559.45	857.13
559.81	858.66
560.16	859.83
560.52	861.24
560.87	862.85
561.23	864.49
561.58	866.49
561.94	868.19
562.29	869.51
562.64	871.00
563.00	872.42
563.35	873.84
563.71	875.26
564.06	876.83
564.42	878.24
564.77	879.34
565.12	880.57
565.48	882.33
565.83	883.98
566.19	885.92
566.54	887.73
566.89	889.23
567.25	890.57
567.60	892.32
567.96	893.92
568.31	895.20
568.66	896.18
569.02	897.12
569.37	897.97
569.72	899.11
570.08	899.90
570.43	900.56
570.78	901.58
571.14	902.34
571.49	902.90
571.84	904.23
572.20	905.39
572.55	906.56
572.90	906.95
573.26	907.57
573.61	907.48
573.96	907.52
574.31	907.67
574.67	907.70
575.02	907.66
575.37	907.74
575.72	907.84
576.08	908.12
576.43	908.12
576.78	908.13
577.13	908.25
577.49	908.56
577.84	909.09
578.19	909.36
578.54	909.55
578.90	909.94
579.25	909.67
579.60	909.23
579.95	908.51
580.30	908.20
580.66	907.99
581.01	908.03
581.36	907.94
581.71	907.86
582.06	907.91
582.42	907.71
582.77	907.12
583.12	906.73
583.47	906.44
583.82	906.16
584.17	905.58
584.53	905.02
584.88	904.11
585.23	903.10
585.58	902.14
585.93	901.05
586.28	900.18
586.63	899.06
586.98	898.24
587.34	897.64
587.69	896.32
588.04	894.95
588.39	893.55
588.74	891.97
589.09	890.49
589.44	888.79
589.79	887.37
590.14	886.15
590.49	884.50
590.84	882.59
591.19	880.96
591.54	879.49
591.89	877.52
592.25	875.99
592.60	873.65
592.95	871.43
593.30	869.71
593.65	867.47
594.00	865.73
594.35	864.68
594.70	862.67
595.05	861.33
595.40	859.43
595.75	857.31
596.10	855.63
596.45	853.63
596.80	851.58
597.15	849.30
597.50	847.16
597.85	845.41
598.19	843.49
598.54	841.10
598.89	838.73
599.24	837.09
599.59	834.92
599.94	833.28
600.29	831.38
600.64	829.23
600.99	827.12
601.34	824.93
601.69	821.88
602.04	819.47
602.39	816.57
602.74	814.20
603.08	812.12
603.43	809.95
603.78	807.90
604.13	805.92
604.48	803.94
604.83	801.95
605.18	799.97
605.53	798.05
605.87	796.51
606.22	795.49
606.57	794.26
606.92	793.18
607.27	792.30
607.62	791.56
607.96	790.55
608.31	789.64
608.66	788.45
609.01	787.07
609.36	785.78
609.70	784.46
610.05	782.78
610.40	781.13
610.75	779.26
611.10	777.31
611.44	775.00
611.79	772.88
612.14	770.62
612.49	767.79
612.83	765.05
613.18	762.02
613.53	758.52
613.88	754.68
614.22	750.87
614.57	746.72
614.92	742.45
615.27	738.50
615.61	734.50
615.96	730.75
616.31	727.22
616.65	723.82
617.00	720.42
617.35	717.46
617.70	714.16
618.04	710.89
618.39	707.78
618.74	704.90
619.08	701.74
619.43	698.48
619.78	695.48
620.12	692.55
620.47	689.78
620.82	686.94
621.16	684.08
621.51	681.48
621.85	678.88
622.20	676.26
622.55	673.63
622.89	671.12
623.24	668.68
623.59	666.15
623.93	663.37
624.28	660.56
624.62	657.68
624.97	654.83
625.32	651.94
625.66	649.00
626.01	646.29
626.35	643.79
626.70	641.43
627.04	639.20
627.39	636.70
627.73	634.22
628.08	631.72
628.43	629.14
628.77	626.29
629.12	623.54
629.46	621.09
629.81	618.30
630.15	615.52
630.50	612.79
630.84	609.88
631.19	607.23
631.53	604.65
631.88	601.79
632.22	599.31
632.57	596.94
632.91	594.39
633.26	591.65
633.60	588.68
633.95	585.78
634.29	582.78
634.64	579.97
634.98	576.86
635.32	574.03
635.67	571.51
636.01	568.93
636.36	566.25
636.70	563.63
637.05	561.10
637.39	558.56
637.73	555.89
638.08	553.59
638.42	551.03
638.77	548.62
639.11	546.23
639.45	543.73
639.80	541.09
640.14	538.62
640.49	536.22
640.83	534.02
641.17	531.81
641.52	529.61
641.86	527.35
642.20	525.54
642.55	523.44
642.89	521.25
643.23	519.26
643.58	517.40
643.92	515.14
644.26	513.08
644.61	511.06
644.95	508.87
645.29	506.59
645.64	504.59
645.98	502.62
646.32	500.77
646.66	498.63
647.01	496.72
647.35	494.90
647.69	493.04
648.04	491.14
648.38	489.16
648.72	487.13
649.06	485.11
649.41	482.89
649.75	480.86
650.09	479.01
650.43	476.98
650.78	474.83
651.12	472.72
651.46	470.86
651.80	469.00
652.14	467.29
652.49	465.48
652.83	463.41
653.17	461.29
653.51	459.14
653.85	457.26
654.20	455.27
654.54	453.26
654.88	451.18
655.22	449.23
655.56	447.26
655.90	445.43
656.25	443.61
656.59	441.82
656.93	439.95
657.27	438.11
657.61	436.23
657.95	434.54
658.29	432.93
658.64	431.11
658.98	429.22
659.32	427.21
659.66	425.41
660.00	423.71
660.34	421.96
660.68	420.20
661.02	418.39
661.36	416.77
661.70	415.02
662.05	413.49
662.39	411.89
662.73	410.30
663.07	408.71
663.41	407.16
663.75	405.58
664.09	404.12
664.43	402.38
664.77	400.81
665.11	399.22
665.45	397.65
665.79	396.06
666.13	394.56
666.47	393.12
666.81	391.59
667.15	390.07
667.49	388.74
667.83	387.42
668.17	385.99
668.51	384.53
668.85	383.21
669.19	381.84
669.53	380.40
669.87	379.04
670.21	377.67
670.55	376.23
670.89	375.01
671.23	373.66
671.57	372.35
671.91	371.09
672.25	369.83
672.58	368.65
672.92	367.42
673.26	366.13
673.60	364.90
673.94	363.69
674.28	362.53
674.62	361.34
674.96	360.14
675.30	358.99
675.64	357.74
675.97	356.53
676.31	355.34
676.65	354.18
676.99	353.15
677.33	352.07
677.67	351.06
678.01	349.93
678.34	348.91
678.68	347.92
679.02	346.88
679.36	345.88
679.70	344.81
680.04	343.81
680.37	342.75
680.71	341.79
681.05	340.86
681.39	339.81
681.73	338.74
682.06	337.75
682.40	336.80
682.74	335.93
683.08	335.10
683.42	334.14
683.75	333.25
684.09	332.17
684.43	331.20
684.77	330.25
685.10	329.20
685.44	328.17
685.78	327.29
686.12	326.35
686.45	325.36
686.79	324.38
687.13	323.60
687.46	322.84
687.80	322.00
688.14	321.07
688.48	320.32
688.81	319.57
689.15	318.83
689.49	318.02
689.82	317.27
690.16	316.40
690.50	315.60
690.83	314.79
691.17	314.03
691.51	313.28
691.84	312.49
692.18	311.73
692.52	310.99
692.85	310.18
693.19	309.46
693.52	308.73
693.86	308.01
694.20	307.18
694.53	306.43
694.87	305.68
695.21	304.99
695.54	304.25
695.88	303.41
696.21	302.53
696.55	301.85
696.88	301.06
697.22	300.36
697.56	299.75
697.89	299.05
698.23	298.41
698.56	297.70
698.90	297.19
699.23	296.58
699.57	295.96
699.90	295.37
700.24	294.78
700.58	294.27
700.91	293.79
701.25	293.36
701.58	292.89
701.92	292.43
702.25	291.89
702.59	291.40
702.92	290.97
703.26	290.61
703.59	290.17
703.93	289.96
704.26	289.47
704.60	288.90
704.93	288.50
705.26	288.02
705.60	287.64
705.93	287.04
706.27	286.71
706.60	286.29
706.94	285.94
707.27	285.42
707.61	284.96
707.94	284.49
708.27	283.94
708.61	283.47
708.94	282.95
709.28	282.50
709.61	282.03
709.94	281.54
710.28	280.99
710.61	280.46
710.95	279.69
711.28	279.39
711.61	278.94
711.95	278.43
712.28	277.86
712.61	277.30
712.95	276.91
713.28	276.48
713.61	275.86
713.95	275.23
714.28	274.79
714.61	274.19
714.95	273.67
715.28	273.10
715.61	272.52
715.95	272.03
716.28	271.57
716.61	271.12
716.95	270.69
717.28	270.28
717.61	269.89
717.94	269.54
718.28	268.99
718.61	268.59
718.94	268.25
719.27	267.91
719.61	267.59
719.94	267.21
720.27	266.75
720.60	266.51
720.94	266.19
721.27	265.85
721.60	265.64
721.93	265.37
722.27	265.19
722.60	264.98
722.93	264.70
723.26	264.43
723.59	264.19
723.93	263.96
724.26	263.70
724.59	263.44
724.92	263.16
725.25	262.94
725.59	262.71
725.92	262.50
726.25	262.30
726.58	262.05
726.91	261.78
727.24	261.58
727.57	261.38
727.91	261.16
728.24	260.98
728.57	260.68
728.90	260.45
729.23	260.17
729.56	260.07
729.89	259.87
730.22	259.67
730.55	259.40
730.89	259.14
731.22	258.96
731.55	258.70
731.88	258.53
732.21	258.33
732.54	258.04
732.87	257.79
733.20	257.51
733.53	257.30
733.86	257.10
734.19	256.86
734.52	256.64
734.85	256.60
735.18	256.35
735.51	256.28
735.84	256.16
736.17	256.04
736.50	255.75
736.83	255.77
737.16	255.61
737.49	255.43
737.82	255.25
738.15	255.10
738.48	254.97
738.81	254.76
739.14	254.52
739.47	254.38
739.80	254.20
740.13	254.08
740.46	253.86
740.79	253.64
741.12	253.46
741.45	253.29
741.78	253.01
742.11	252.90
742.44	252.66
742.77	252.47
743.10	252.24
743.43	252.01
743.75	251.60
744.08	251.70
744.41	251.49
744.74	251.31
745.07	251.10
745.40	250.96
745.73	250.90
746.06	250.77
746.39	250.64
746.71	250.45
747.04	250.30
747.37	250.16
747.70	250.06
748.03	249.91
748.36	249.79
748.68	249.64
749.01	249.45
749.34	249.35
749.67	249.21
750.00	249.09
750.33	249.12
750.65	248.99
750.98	248.60
751.31	248.49
751.64	248.43
751.97	248.39
752.29	248.23
752.62	247.98
752.95	247.85
753.28	247.71
753.60	247.61
753.93	247.52
754.26	247.40
754.59	247.24
754.91	247.15
755.24	246.97
755.57	246.82
755.90	246.72
756.22	246.55
756.55	246.39
756.88	246.20
757.20	245.97
757.53	245.83
757.86	245.69
758.19	245.59
758.51	245.39
758.84	245.17
759.17	245.07
759.49	245.00
759.82	245.00
760.15	244.87
760.47	244.77
760.80	244.62
761.13	244.59
761.45	244.50
761.78	244.37
762.11	244.30
762.43	244.18
762.76	244.06
763.08	244.01
763.41	243.91
763.74	243.90
764.06	243.78
764.39	243.69
764.71	243.64
765.04	243.59
765.37	243.44
765.69	243.41
766.02	243.30
766.34	243.20
766.67	243.02
767.00	243.03
767.32	243.06
767.65	243.13
767.97	243.00
768.30	242.94
768.62	242.85
768.95	242.80
769.27	242.79
769.60	242.76
769.92	242.70
770.25	242.62
770.57	242.50
770.90	242.44
771.22	242.38
771.55	242.30
771.87	242.21
772.20	242.20
772.52	242.26
772.85	242.47
773.17	242.45
773.50	242.41
773.82	242.31
774.15	242.17
774.47	242.03
774.80	241.99
775.12	241.89
775.45	241.87
775.77	241.77
776.09	241.71
776.42	241.66
776.74	241.62
777.07	241.59
777.39	241.56
777.72	241.50
778.04	241.47
778.36	241.43
778.69	241.41
779.01	241.43
779.33	241.20
779.66	240.89
779.98	240.85
780.31	240.85
780.63	240.88
780.95	240.93
781.28	240.83
781.60	240.79
781.92	240.74
782.25	240.73
782.57	240.77
782.89	240.67
783.22	240.57
783.54	240.51
783.86	240.45
784.19	240.39
784.51	240.47
784.83	240.42
785.16	240.41
785.48	240.36
785.80	240.29
786.12	240.34
786.45	240.35
786.77	240.29
787.09	240.18
787.42	240.09
787.74	240.00
788.06	239.94
788.38	239.89
788.71	239.88
789.03	239.85
789.35	239.84
789.67	239.83
789.99	239.88
790.32	239.85
790.64	239.90
790.96	240.06
791.28	239.91
791.61	239.90
791.93	239.84
792.25	239.83
792.57	239.99
792.89	239.89
793.21	239.90
793.54	239.90
793.86	239.89
794.18	239.87
794.50	239.80
794.82	239.84
795.14	239.87
795.47	239.89
795.79	239.85
796.11	239.76
796.43	239.70
796.75	239.67
797.07	239.61
797.39	239.53
797.71	239.38
798.04	239.33
798.36	239.34
798.68	239.30
799.00	239.28
799.32	239.07
799.64	239.08
799.96	239.05
800.28	239.02
800.60	238.96
800.92	238.96
801.24	238.91
801.56	238.93
801.89	238.87
802.21	238.86
802.53	238.80
802.85	238.84
803.17	238.94
803.49	238.85
803.81	238.84
804.13	238.83
804.45	238.72
804.77	238.72
805.09	238.63
805.41	238.65
805.73	238.55
806.05	238.50
806.37	238.45
806.69	238.38
807.01	238.43
807.33	238.40
807.65	238.29
807.97	238.37
808.28	238.26
808.60	238.27
808.92	238.24
809.24	238.37
809.56	238.27
809.88	238.18
810.20	238.20
810.52	238.21
810.84	238.14
811.16	238.17
811.48	238.18
811.80	238.26
812.12	238.17
812.43	238.22
812.75	238.18
813.07	238.21
813.39	238.24
813.71	238.08
814.03	238.07
814.35	238.08
814.67	237.98
814.98	238.00
815.30	237.95
815.62	237.87
815.94	237.64
816.26	237.67
816.58	237.62
816.89	237.60
817.21	237.55
817.53	237.57
817.85	237.53
818.17	237.46
818.48	237.39
818.80	237.44
819.12	237.37
819.44	237.43
819.76	237.37
820.07	237.32
820.39	237.40
820.71	237.42
821.03	237.34
821.34	237.32
821.66	237.36
821.98	237.41
822.30	237.41
822.61	237.61
822.93	237.55
823.25	237.58
823.57	237.59
823.88	237.58
824.20	237.59
824.52	237.66
824.83	237.64
825.15	237.67
825.47	237.63
825.79	237.72
826.10	237.67
826.42	237.62
826.74	237.63
827.05	237.62
827.37	237.58
827.69	237.66
828.00	237.67
828.32	237.63
828.64	237.55
828.95	237.65
829.27	237.57
829.58	237.62
829.90	237.61
830.22	237.59
830.53	237.60
830.85	237.57
831.17	237.46
831.48	237.46
831.80	237.41
832.11	237.43
832.43	237.32
832.75	237.32
833.06	237.47
833.38	237.43
833.69	237.36
834.01	237.44
834.32	237.50
834.64	237.47
834.96	237.44
835.27	237.49
835.59	237.47
835.90	237.44
836.22	237.44
836.53	237.41
836.85	237.37
837.16	237.58
837.48	237.61
837.79	237.74
838.11	237.77
838.42	237.78
838.74	237.81
839.05	237.79
839.37	237.80
839.68	237.65
840.00	237.60
840.31	237.66
840.63	237.58
840.94	237.45
841.26	237.49
841.57	237.51
841.88	237.49
842.20	237.43
842.51	237.36
842.83	237.31
843.14	237.54
843.46	237.54
843.77	237.35
844.08	237.31
844.40	237.23
844.71	237.18
845.03	237.17
845.34	237.15
845.65	237.15
845.97	237.14
846.28	237.20
846.60	237.24
846.91	237.20
847.22	237.24
847.54	237.28
847.85	237.26
848.16	237.24
848.48	237.25
848.79	237.31
849.10	237.33
849.42	237.37
849.73	237.10
850.04	237.09
850.36	237.05
850.67	237.08
850.98	237.05
851.30	237.12
851.61	237.13
851.92	237.05
852.23	237.13
852.55	237.15
852.86	237.14
853.17	237.15
853.49	237.19
853.80	237.16
854.11	237.15
854.42	237.17
854.74	237.17
855.05	237.08
855.36	236.93
855.67	236.92
855.99	236.93
856.30	237.21
856.61	237.23
856.92	237.24
857.23	237.26
857.55	237.28
857.86	237.24
858.17	237.21
858.48	237.19
858.79	237.14
859.11	237.17
859.42	237.13
859.73	237.10
860.04	237.04
860.35	236.97
860.66	236.94
860.98	236.90
861.29	236.87
861.60	236.88
861.91	237.00
862.22	237.00
862.53	236.95
862.84	236.71
863.16	236.72
863.47	236.67
863.78	236.60
864.09	236.66
864.40	236.65
864.71	236.67
865.02	236.68
865.33	236.62
865.64	236.54
865.95	236.56
866.27	236.75
866.58	236.75
866.89	236.82
867.20	236.81
867.51	236.81
867.82	236.78
868.13	236.80
868.44	236.70
868.75	236.76
869.06	236.74
869.37	236.74
869.68	236.70
869.99	236.72
870.30	236.76
870.61	236.77
870.92	236.71
871.23	236.71
871.54	236.72
871.85	236.78
872.16	236.80
872.47	236.78
872.78	236.65
873.09	236.70
873.40	236.67
873.71	236.70
874.02	236.71
874.33	236.79
874.64	236.75
874.95	236.77
875.26	236.71
875.56	236.70
875.87	236.69
876.18	236.68
876.49	236.92
876.80	236.87
877.11	236.80
877.42	236.84
877.73	236.86
878.04	236.84
878.35	236.88
878.66	236.92
878.96	236.88
879.27	236.85
879.58	236.78
879.89	236.75
880.20	236.77
880.51	236.74
880.82	236.69
881.12	236.76
881.43	236.73
881.74	236.69
882.05	236.67
882.36	236.70
882.67	236.71
882.97	236.52
883.28	236.49
883.59	236.48
883.90	236.52
884.21	236.51
884.51	236.47
884.82	236.39
885.13	236.37
885.44	236.37
885.74	236.36
886.05	236.37
886.36	236.40
886.67	236.37
886.98	236.49
887.28	236.49
887.59	236.39
887.90	236.43
888.20	236.47
888.51	236.49
888.82	236.44
889.13	236.44
889.43	236.54
889.74	236.50
890.05	236.50
890.35	236.40
890.66	236.37
890.97	236.37
891.28	236.37
891.58	236.35
891.89	236.33
892.20	236.31
892.50	236.27
892.81	236.21
893.12	236.15
893.42	235.98
893.73	235.98
894.04	236.07
894.34	236.07
894.65	236.03
894.95	236.08
895.26	236.08
895.57	236.12
895.87	235.94
896.18	235.97
896.48	235.98
896.79	236.04
897.10	236.07
897.40	236.14
897.71	236.20
898.01	236.20
898.32	236.23
898.63	236.24
898.93	236.26
899.24	236.34
899.54	236.33
899.85	236.37
900.15	236.37
900.46	236.32
900.76	236.34
901.07	236.34
901.38	236.30
901.68	236.34
901.99	236.31
902.29	236.33
902.60	236.35
902.90	236.32
903.21	236.32
903.51	236.33
903.82	236.35
904.12	236.33
904.43	236.30
904.73	236.32
905.03	236.36
905.34	236.55
905.64	236.49
905.95	236.50
906.25	236.52
906.56	236.51
906.86	236.56
907.17	236.54
907.47	236.55
907.77	236.53
908.08	236.53
908.38	236.49
908.69	236.51
908.99	236.57
909.30	236.63
909.60	236.62
909.90	236.60
910.21	236.53
910.51	236.46
910.81	236.48
911.12	236.47
911.42	236.46
911.73	236.25
912.03	236.28
912.33	236.36
912.64	236.39
912.94	236.29
913.24	236.20
913.55	236.20
913.85	236.14
914.15	236.21
914.46	236.18
914.76	236.20
915.06	236.25
915.37	236.23
915.67	236.17
915.97	236.17
916.27	236.11
916.58	236.13
916.88	236.14
917.18	236.14
917.49	236.33
917.79	236.35
918.09	236.34
918.39	236.40
918.70	236.36
919.00	236.34
919.30	236.48
919.60	236.53
919.91	236.51
920.21	236.56
920.51	236.55
920.81	236.53
921.12	236.56
921.42	236.49
921.72	236.42
922.02	236.38
922.32	236.41
922.63	236.48
922.93	236.56
923.23	236.56
923.53	236.52
923.83	236.38
924.13	236.37
924.44	236.45
924.74	236.41
925.04	236.45
925.34	236.46
925.64	236.40
925.94	236.44
926.24	236.54
926.55	236.54
926.85	236.51
927.15	236.49
927.45	236.49
927.75	236.47
928.05	236.57
928.35	236.64
928.65	236.66
928.95	236.57
929.26	236.53
929.56	236.59
929.86	236.66
930.16	236.63
930.46	236.64
930.76	236.60
931.06	236.54
931.36	236.50
931.66	236.50
931.96	236.55
932.26	236.57
932.56	236.53
932.86	236.57
933.16	236.58
933.46	236.60
933.76	236.58
934.06	236.62
934.36	236.70
934.66	236.64
934.96	236.57
935.26	236.65
935.56	236.68
935.86	236.59
936.16	236.53
936.46	236.44
936.76	236.44
937.06	236.49
937.36	236.52
937.66	236.53
937.96	236.57
938.26	236.48
938.56	236.41
938.86	236.37
939.16	236.37
939.46	236.36
939.76	236.35
940.06	236.34
940.35	236.26
940.65	236.16
940.95	236.17
941.25	236.17
941.55	236.16
941.85	236.13
942.15	236.22
942.45	236.29
942.75	236.37
943.04	236.27
943.34	236.25
943.64	236.23
943.94	236.20
944.24	236.15
944.54	236.23
944.84	236.25
945.13	236.20
945.43	236.16
945.73	236.21
946.03	236.23
946.33	236.20
946.62	236.22
946.92	236.20
947.22	236.20
947.52	236.24
947.82	236.24
948.11	236.22
948.41	236.16
948.71	236.11
949.01	236.10
949.31	236.18
949.60	236.17
949.90	236.30
950.20	236.31
950.50	236.32
950.79	236.24
951.09	236.27
951.39	236.31
951.69	236.30
951.98	236.32
952.28	236.29
952.58	236.29
952.87	236.36
953.17	236.38
953.47	236.39
953.76	236.43
954.06	236.44
954.36	236.41
954.66	236.42
954.95	236.47
955.25	236.46
955.55	236.51
955.84	236.51
956.14	236.49
956.44	236.53
956.73	236.47
957.03	236.47
957.32	236.51
957.62	236.52
957.92	236.57
958.21	236.51
958.51	236.78
958.81	236.81
959.10	236.80
959.40	236.88
959.69	236.88
959.99	236.88
960.29	236.84
960.58	236.86
960.88	237.00
961.17	237.03
961.47	237.06
961.76	236.98
962.06	236.97
962.36	236.90
962.65	236.93
962.95	236.97
963.24	237.05
963.54	237.01
963.83	236.99
964.13	237.01
964.42	236.97
964.72	236.83
965.01	236.79
965.31	236.79
965.60	236.69
965.90	236.88
966.19	236.84
966.49	236.84
966.78	236.82
967.08	236.78
967.37	236.73
967.67	236.68
967.96	236.69
968.26	236.70
968.55	236.76
968.85	236.70
969.14	236.72
969.43	236.68
969.73	236.68
970.02	236.66
970.32	236.61
970.61	236.64
970.91	236.58
971.20	236.62
971.49	236.61
971.79	236.64
972.08	236.46
972.38	236.41
972.67	236.47
972.96	236.56
973.26	236.45
973.55	236.53
973.85	236.52
974.14	236.47
974.43	236.51
974.73	236.45
975.02	236.47
975.31	236.47
975.61	236.50
975.90	236.49
976.19	236.44
976.49	236.47
976.78	236.45
977.07	236.43
977.37	236.43
977.66	236.44
977.95	236.43
978.24	236.46
978.54	236.58
978.83	236.54
979.12	236.45
979.42	236.44
979.71	236.41
980.00	236.45
980.29	236.51
980.59	236.46
980.88	236.46
981.17	236.41
981.46	236.43
981.76	236.39
982.05	236.47
982.34	236.55
982.63	236.55
982.93	236.61
983.22	236.65
983.51	236.66
983.80	236.71
984.09	236.73
984.39	236.74
984.68	236.62
984.97	236.65
985.26	236.66
985.55	236.70
985.85	236.69
986.14	236.65
986.43	236.71
986.72	236.66
987.01	236.61
987.30	236.57
987.59	236.47
987.89	236.43
988.18	236.27
988.47	236.21
988.76	236.13
989.05	236.04
989.34	235.97
989.63	236.01
989.92	235.94
990.22	235.87
990.51	235.78
990.80	235.80
991.09	235.77
991.38	235.81
991.67	235.81
991.96	235.74
992.25	235.75
992.54	235.71
992.83	235.74
993.12	235.76
993.41	235.84
993.70	236.01
993.99	236.09
994.28	236.16
994.58	236.19
994.87	236.20
995.16	236.23
995.45	236.22
995.74	236.17
996.03	236.18
996.32	236.22
996.61	236.26
996.90	236.28
997.19	236.29
997.48	236.23
997.77	236.16
998.06	236.21
998.34	236.21
998.63	236.10
998.92	236.11
999.21	236.16
999.50	236.16
999.79	236.05
1000.08	236.06
1000.37	236.04
1000.66	236.00
1000.95	236.07
1001.24	236.06
1001.53	236.17
1001.82	236.14
1002.11	236.08
1002.40	236.13
1002.68	236.24
1002.97	236.37
1003.26	236.34
1003.55	236.33
1003.84	236.35
1004.13	236.39
1004.42	236.39
1004.71	236.43
1004.99	236.42
1005.28	236.40
1005.57	236.33
1005.86	236.32
1006.15	236.25
1006.44	236.25
1006.72	236.30
1007.01	236.22
1007.30	236.24
1007.59	236.14
1007.88	236.16
1008.17	236.21
1008.45	236.15
1008.74	236.00
1009.03	235.94
1009.32	236.00
1009.60	236.07
1009.89	236.09
1010.18	236.00
1010.47	235.97
1010.76	236.02
1011.04	236.02
1011.33	235.99
1011.62	236.02
1011.91	235.99
1012.19	236.03
1012.48	236.01
1012.77	235.97
1013.05	236.11
1013.34	236.09
1013.63	236.11
1013.92	236.14
1014.20	236.08
1014.49	236.07
1014.78	236.11
1015.06	236.04
1015.35	236.01
1015.64	235.96
1015.92	236.02
1016.21	236.07
1016.50	236.08
1016.78	236.10
1017.07	236.15
1017.36	236.20
1017.64	236.16
1017.93	236.22
1018.22	236.19
1018.50	236.27
1018.79	236.34
1019.08	236.28
1019.36	236.35
1019.65	236.38
1019.93	236.43
1020.22	236.52
1020.51	236.67
1020.79	236.69
1021.08	235.70
1021.36	237.37
1021.65	236.67
1021.94	236.90
1022.22	237.13
1022.51	236.97
1022.79	237.93
1023.08	236.93
1023.36	239.03
1023.65	235.83
>>>>>End Processed Spectral Data<<<<<
