SpectraSuite Data File
++++++++++++++++++++++++++++++++++++
Date: Mon Oct 22 15:14:10 EDT 2012
User: group
Dark Spectrum Present: No
Reference Spectrum Present: No
Number of Sampled Component Spectra: 1
Spectrometers: USB2E7196
Integration Time (usec): 91000 (USB2E7196)
Spectra Averaged: 30 (USB2E7196)
Boxcar Smoothing: 10 (USB2E7196)
Correct for Electrical Dark: No (USB2E7196)
Strobe/Lamp Enabled: No (USB2E7196)
Correct for Detector Non-linearity: No (USB2E7196)
Correct for Stray Light: No (USB2E7196)
Number of Pixels in Processed Spectrum: 2048
>>>>>Begin Processed Spectral Data<<<<<
339.09	0.00
339.48	224.03
339.86	225.37
340.24	227.80
340.63	228.33
341.01	233.37
341.39	231.47
341.78	233.50
342.16	233.97
342.54	235.07
342.93	222.68
343.31	233.87
343.69	234.43
344.07	234.95
344.46	235.37
344.84	235.75
345.22	235.91
345.60	236.20
345.99	236.42
346.37	236.54
346.75	236.60
347.13	236.66
347.52	236.74
347.90	236.84
348.28	236.81
348.66	236.83
349.05	236.77
349.43	236.83
349.81	236.89
350.19	236.95
350.57	236.97
350.96	237.01
351.34	237.17
351.72	237.23
352.10	237.30
352.48	237.34
352.87	237.35
353.25	237.43
353.63	237.48
354.01	237.54
354.39	237.59
354.77	237.68
355.15	237.78
355.54	237.83
355.92	237.84
356.30	237.93
356.68	238.19
357.06	238.27
357.44	238.27
357.82	238.32
358.20	238.40
358.58	238.53
358.97	238.59
359.35	238.67
359.73	238.74
360.11	238.76
360.49	238.86
360.87	238.97
361.25	238.99
361.63	239.10
362.01	239.08
362.39	239.11
362.77	239.22
363.15	239.24
363.53	239.22
363.91	239.24
364.29	239.29
364.67	239.07
365.05	239.08
365.43	239.13
365.81	239.18
366.19	239.27
366.57	239.34
366.95	239.35
367.33	239.27
367.71	239.35
368.09	239.41
368.47	239.35
368.85	239.30
369.23	239.39
369.61	239.29
369.99	239.33
370.37	239.35
370.75	239.35
371.13	239.27
371.51	239.22
371.89	239.21
372.27	239.19
372.65	239.18
373.03	239.15
373.41	239.07
373.78	239.02
374.16	238.84
374.54	238.67
374.92	238.58
375.30	238.54
375.68	238.43
376.06	238.33
376.44	238.30
376.82	238.24
377.19	238.06
377.57	237.92
377.95	237.80
378.33	237.74
378.71	237.59
379.09	237.59
379.47	237.60
379.84	237.49
380.22	237.40
380.60	237.30
380.98	237.24
381.36	237.21
381.73	237.11
382.11	237.11
382.49	237.08
382.87	237.06
383.25	237.00
383.62	237.19
384.00	237.15
384.38	237.09
384.76	237.13
385.13	237.18
385.51	237.25
385.89	237.20
386.27	237.15
386.64	237.14
387.02	237.03
387.40	236.98
387.78	236.97
388.15	237.00
388.53	236.92
388.91	236.90
389.29	236.85
389.66	236.90
390.04	236.84
390.42	236.88
390.79	236.84
391.17	236.83
391.55	236.53
391.92	236.52
392.30	236.53
392.68	236.47
393.05	236.53
393.43	236.47
393.81	236.44
394.18	236.42
394.56	236.40
394.94	236.47
395.31	236.47
395.69	236.51
396.06	236.48
396.44	236.55
396.82	236.49
397.19	236.61
397.57	236.61
397.95	236.73
398.32	236.68
398.70	236.75
399.07	236.84
399.45	236.97
399.82	237.05
400.20	237.08
400.58	237.13
400.95	237.11
401.33	237.27
401.70	237.56
402.08	237.66
402.45	237.85
402.83	238.10
403.20	238.24
403.58	238.38
403.95	238.60
404.33	238.78
404.71	239.05
405.08	239.29
405.46	239.45
405.83	239.63
406.21	239.93
406.58	240.22
406.96	240.54
407.33	240.84
407.70	241.18
408.08	241.78
408.45	242.27
408.83	242.79
409.20	243.25
409.58	243.61
409.95	244.21
410.33	244.79
410.70	245.33
411.08	246.03
411.45	246.84
411.82	247.63
412.20	248.60
412.57	249.65
412.95	250.55
413.32	251.70
413.69	252.90
414.07	254.18
414.44	255.53
414.82	256.84
415.19	258.52
415.56	260.15
415.94	261.78
416.31	263.72
416.68	265.61
417.06	267.86
417.43	270.00
417.81	272.41
418.18	274.89
418.55	277.57
418.93	280.40
419.30	283.26
419.67	286.38
420.04	289.53
420.42	293.00
420.79	296.90
421.16	300.84
421.54	304.87
421.91	309.05
422.28	313.45
422.66	318.17
423.03	322.74
423.40	327.58
423.77	332.86
424.15	338.21
424.52	343.77
424.89	349.77
425.26	355.73
425.64	361.35
426.01	367.57
426.38	374.06
426.75	380.68
427.13	387.62
427.50	394.80
427.87	402.41
428.24	409.91
428.61	417.30
428.99	425.35
429.36	434.09
429.73	442.76
430.10	451.33
430.47	460.18
430.85	469.45
431.22	479.18
431.59	489.32
431.96	499.28
432.33	510.27
432.70	521.02
433.08	533.59
433.45	545.65
433.82	557.56
434.19	570.84
434.56	583.80
434.93	596.41
435.30	608.95
435.68	622.87
436.05	636.45
436.42	650.17
436.79	662.78
437.16	676.52
437.53	690.86
437.90	705.19
438.27	719.27
438.64	733.78
439.01	747.57
439.38	760.01
439.75	771.93
440.13	785.47
440.50	798.14
440.87	808.80
441.24	819.53
441.61	831.41
441.98	840.23
442.35	850.74
442.72	860.98
443.09	871.04
443.46	877.23
443.83	881.80
444.20	885.64
444.57	891.02
444.94	893.62
445.31	896.27
445.68	898.60
446.05	899.84
446.42	899.07
446.79	897.66
447.16	895.97
447.53	894.77
447.90	889.64
448.27	884.59
448.64	877.44
449.01	872.13
449.37	863.00
449.74	854.27
450.11	843.40
450.48	831.93
450.85	820.22
451.22	810.29
451.59	800.88
451.96	791.75
452.33	779.63
452.70	768.83
453.07	756.00
453.43	743.12
453.80	730.54
454.17	718.19
454.54	706.73
454.91	694.53
455.28	682.51
455.65	671.57
456.02	660.37
456.38	651.01
456.75	639.53
457.12	629.97
457.49	620.43
457.86	611.32
458.23	603.47
458.59	594.80
458.96	586.02
459.33	578.22
459.70	570.28
460.07	564.08
460.43	556.77
460.80	549.91
461.17	543.71
461.54	537.46
461.91	531.62
462.27	525.55
462.64	520.45
463.01	514.87
463.38	509.35
463.74	504.01
464.11	499.20
464.48	495.05
464.85	490.53
465.21	487.05
465.58	483.32
465.95	478.82
466.32	475.20
466.68	471.51
467.05	467.66
467.42	464.13
467.78	460.27
468.15	456.63
468.52	453.91
468.88	450.57
469.25	447.48
469.62	444.95
469.98	442.34
470.35	439.89
470.72	437.50
471.08	435.00
471.45	432.77
471.82	430.53
472.18	428.07
472.55	426.32
472.92	424.39
473.28	422.80
473.65	421.16
474.02	419.37
474.38	417.96
474.75	416.90
475.11	415.60
475.48	414.64
475.85	413.94
476.21	413.06
476.58	412.48
476.94	412.02
477.31	411.47
477.67	410.87
478.04	410.44
478.41	410.23
478.77	410.23
479.14	410.04
479.50	410.02
479.87	410.34
480.23	410.63
480.60	410.69
480.96	410.86
481.33	411.47
481.69	412.11
482.06	412.59
482.42	413.03
482.79	413.72
483.15	414.62
483.52	415.73
483.88	416.78
484.25	417.81
484.61	419.03
484.98	420.28
485.34	421.83
485.71	423.46
486.07	425.10
486.44	426.66
486.80	428.60
487.17	430.61
487.53	432.72
487.90	434.89
488.26	437.33
488.62	439.82
488.99	442.24
489.35	444.72
489.72	447.57
490.08	450.61
490.44	453.56
490.81	456.70
491.17	459.75
491.54	463.25
491.90	466.79
492.26	470.37
492.63	474.07
492.99	477.88
493.36	481.80
493.72	486.03
494.08	490.26
494.45	494.66
494.81	499.16
495.17	503.74
495.54	508.44
495.90	513.38
496.26	518.26
496.63	523.32
496.99	528.58
497.35	534.00
497.72	539.59
498.08	545.29
498.44	550.81
498.80	556.67
499.17	562.47
499.53	568.39
499.89	574.48
500.26	580.51
500.62	586.43
500.98	592.81
501.34	598.80
501.71	605.17
502.07	611.66
502.43	618.16
502.79	624.65
503.16	631.14
503.52	637.62
503.88	644.39
504.24	650.93
504.60	657.25
504.97	663.70
505.33	670.03
505.69	676.79
506.05	683.53
506.41	690.04
506.78	696.56
507.14	703.07
507.50	709.58
507.86	716.04
508.22	722.60
508.59	728.62
508.95	734.97
509.31	741.26
509.67	747.41
510.03	753.20
510.39	758.92
510.75	764.71
511.12	770.24
511.48	775.56
511.84	781.03
512.20	786.40
512.56	791.46
512.92	796.67
513.28	801.32
513.64	805.86
514.00	810.29
514.37	814.36
514.73	818.37
515.09	822.11
515.45	826.03
515.81	829.63
516.17	833.06
516.53	836.38
516.89	839.55
517.25	842.47
517.61	845.43
517.97	848.26
518.33	850.62
518.69	852.94
519.05	855.10
519.41	857.04
519.77	859.04
520.13	861.04
520.49	862.36
520.85	863.89
521.21	865.35
521.57	866.82
521.93	867.84
522.29	868.70
522.65	869.35
523.01	869.78
523.37	870.05
523.73	870.48
524.09	870.59
524.45	870.28
524.81	870.30
525.17	870.20
525.53	870.06
525.89	869.77
526.25	869.41
526.61	868.87
526.97	868.29
527.33	867.86
527.68	867.50
528.04	866.97
528.40	865.93
528.76	864.95
529.12	863.88
529.48	863.14
529.84	862.22
530.20	861.41
530.56	860.43
530.91	859.52
531.27	858.83
531.63	858.02
531.99	857.31
532.35	855.96
532.71	854.84
533.07	853.76
533.42	852.96
533.78	852.10
534.14	851.25
534.50	850.43
534.86	849.67
535.21	848.15
535.57	847.14
535.93	846.22
536.29	845.59
536.65	844.87
537.00	844.08
537.36	843.41
537.72	842.73
538.08	842.31
538.44	841.73
538.79	840.77
539.15	839.98
539.51	839.68
539.87	839.53
540.22	838.86
540.58	838.33
540.94	837.74
541.29	837.11
541.65	836.66
542.01	836.37
542.37	835.88
542.72	835.70
543.08	835.29
543.44	835.26
543.79	834.62
544.15	834.48
544.51	834.64
544.87	834.37
545.22	834.29
545.58	834.06
545.94	834.04
546.29	833.90
546.65	833.74
547.01	833.23
547.36	832.96
547.72	832.98
548.07	833.09
548.43	833.08
548.79	833.27
549.14	833.52
549.50	833.83
549.86	834.12
550.21	834.40
550.57	835.10
550.92	835.45
551.28	835.98
551.64	836.10
551.99	836.19
552.35	836.83
552.70	837.24
553.06	837.67
553.41	838.10
553.77	838.90
554.13	839.87
554.48	840.81
554.84	841.71
555.19	842.83
555.55	843.90
555.90	845.11
556.26	846.17
556.61	847.02
556.97	847.52
557.32	848.49
557.68	849.79
558.03	850.73
558.39	851.80
558.74	853.09
559.10	854.39
559.45	855.69
559.81	857.13
560.16	858.57
560.52	859.97
560.87	861.75
561.23	863.48
561.58	865.37
561.94	867.09
562.29	868.42
562.64	870.21
563.00	871.68
563.35	873.09
563.71	874.61
564.06	876.07
564.42	877.58
564.77	878.77
565.12	879.98
565.48	881.66
565.83	883.27
566.19	885.20
566.54	887.12
566.89	888.55
567.25	889.78
567.60	891.38
567.96	892.94
568.31	894.09
568.66	895.10
569.02	895.98
569.37	896.71
569.72	897.88
570.08	898.42
570.43	899.27
570.78	900.24
571.14	901.02
571.49	901.91
571.84	903.18
572.20	904.21
572.55	905.44
572.90	906.10
573.26	906.76
573.61	906.84
573.96	906.91
574.31	907.20
574.67	907.44
575.02	907.36
575.37	907.50
575.72	907.70
576.08	908.00
576.43	907.85
576.78	908.07
577.13	908.36
577.49	908.57
577.84	908.92
578.19	908.98
578.54	909.13
578.90	909.31
579.25	909.03
579.60	908.55
579.95	907.64
580.30	907.43
580.66	907.25
581.01	907.16
581.36	906.89
581.71	906.70
582.06	906.69
582.42	906.45
582.77	905.85
583.12	905.41
583.47	905.01
583.82	904.63
584.17	903.90
584.53	903.28
584.88	902.73
585.23	901.86
585.58	901.03
585.93	899.92
586.28	898.92
586.63	897.80
586.98	897.14
587.34	896.59
587.69	895.23
588.04	893.94
588.39	892.58
588.74	890.93
589.09	889.76
589.44	888.23
589.79	886.92
590.14	885.67
590.49	884.17
590.84	882.60
591.19	881.34
591.54	879.91
591.89	877.69
592.25	875.98
592.60	873.71
592.95	871.55
593.30	869.84
593.65	867.91
594.00	866.22
594.35	865.28
594.70	863.34
595.05	861.82
595.40	860.00
595.75	857.84
596.10	856.27
596.45	853.97
596.80	851.74
597.15	849.61
597.50	847.55
597.85	845.53
598.19	843.30
598.54	840.89
598.89	838.86
599.24	837.32
599.59	835.29
599.94	833.61
600.29	831.81
600.64	829.80
600.99	827.63
601.34	825.32
601.69	822.11
602.04	819.83
602.39	817.22
602.74	814.84
603.08	812.77
603.43	810.55
603.78	808.57
604.13	806.58
604.48	804.56
604.83	802.47
605.18	800.53
605.53	798.55
605.87	796.78
606.22	795.14
606.57	793.76
606.92	792.38
607.27	791.00
607.62	789.79
607.96	788.37
608.31	787.09
608.66	785.71
609.01	783.97
609.36	782.11
609.70	780.30
610.05	778.24
610.40	776.41
610.75	774.44
611.10	772.45
611.44	770.05
611.79	767.61
612.14	765.18
612.49	762.27
612.83	759.57
613.18	756.56
613.53	753.30
613.88	749.59
614.22	745.87
614.57	741.95
614.92	737.85
615.27	734.08
615.61	730.25
615.96	726.65
616.31	723.36
616.65	720.13
617.00	716.92
617.35	714.03
617.70	710.78
618.04	707.54
618.39	704.39
618.74	701.70
619.08	698.67
619.43	695.62
619.78	692.72
620.12	689.76
620.47	686.94
620.82	684.20
621.16	681.33
621.51	678.72
621.85	676.12
622.20	673.79
622.55	671.09
622.89	668.67
623.24	666.29
623.59	663.79
623.93	661.03
624.28	658.37
624.62	655.64
624.97	652.94
625.32	650.23
625.66	647.33
626.01	644.65
626.35	642.13
626.70	639.61
627.04	637.41
627.39	634.95
627.73	632.58
628.08	629.98
628.43	627.38
628.77	624.56
629.12	622.00
629.46	619.31
629.81	616.74
630.15	614.01
630.50	611.34
630.84	608.53
631.19	606.01
631.53	603.47
631.88	600.78
632.22	598.22
632.57	595.85
632.91	593.50
633.26	590.75
633.60	587.96
633.95	585.19
634.29	582.12
634.64	579.31
634.98	576.43
635.32	573.63
635.67	571.26
636.01	568.69
636.36	566.03
636.70	563.53
637.05	560.89
637.39	558.46
637.73	555.72
638.08	553.35
638.42	550.95
638.77	548.50
639.11	546.04
639.45	543.63
639.80	541.01
640.14	538.50
640.49	536.15
640.83	533.84
641.17	531.67
641.52	529.71
641.86	527.59
642.20	525.55
642.55	523.51
642.89	521.32
643.23	519.38
643.58	517.52
643.92	515.40
644.26	513.36
644.61	511.23
644.95	509.18
645.29	507.01
645.64	504.94
645.98	502.98
646.32	500.96
646.66	498.74
647.01	496.81
647.35	494.99
647.69	493.00
648.04	491.06
648.38	489.04
648.72	486.88
649.06	484.77
649.41	482.77
649.75	480.71
650.09	478.72
650.43	476.73
650.78	474.47
651.12	472.43
651.46	470.51
651.80	468.70
652.14	466.89
652.49	465.11
652.83	463.02
653.17	460.79
653.51	458.78
653.85	456.94
654.20	454.94
654.54	452.81
654.88	450.89
655.22	448.99
655.56	447.13
655.90	445.30
656.25	443.56
656.59	441.68
656.93	439.86
657.27	438.02
657.61	436.02
657.95	434.34
658.29	432.54
658.64	430.75
658.98	428.86
659.32	426.99
659.66	425.08
660.00	423.35
660.34	421.65
660.68	419.95
661.02	418.09
661.36	416.34
661.70	414.65
662.05	413.04
662.39	411.51
662.73	409.82
663.07	408.20
663.41	406.51
663.75	404.90
664.09	403.23
664.43	401.62
664.77	400.12
665.11	398.58
665.45	396.99
665.79	395.50
666.13	393.92
666.47	392.39
666.81	391.00
667.15	389.38
667.49	387.98
667.83	386.52
668.17	385.20
668.51	383.78
668.85	382.43
669.19	381.09
669.53	379.61
669.87	378.24
670.21	376.88
670.55	375.56
670.89	374.34
671.23	373.20
671.57	371.94
671.91	370.67
672.25	369.46
672.58	368.32
672.92	367.03
673.26	365.80
673.60	364.63
673.94	363.35
674.28	362.24
674.62	361.15
674.96	359.95
675.30	358.75
675.64	357.63
675.97	356.48
676.31	355.28
676.65	354.07
676.99	353.04
677.33	351.97
677.67	350.84
678.01	349.68
678.34	348.62
678.68	347.63
679.02	346.54
679.36	345.51
679.70	344.47
680.04	343.48
680.37	342.37
680.71	341.23
681.05	340.33
681.39	339.34
681.73	338.28
682.06	337.30
682.40	336.46
682.74	335.58
683.08	334.72
683.42	333.70
683.75	332.92
684.09	331.98
684.43	331.01
684.77	330.03
685.10	329.17
685.44	328.23
685.78	327.22
686.12	326.31
686.45	325.32
686.79	324.35
687.13	323.53
687.46	322.82
687.80	322.15
688.14	321.19
688.48	320.44
688.81	319.62
689.15	318.88
689.49	318.00
689.82	317.18
690.16	316.30
690.50	315.51
690.83	314.60
691.17	313.70
691.51	312.91
691.84	312.18
692.18	311.29
692.52	310.40
692.85	309.70
693.19	309.05
693.52	308.25
693.86	307.51
694.20	306.77
694.53	305.99
694.87	305.17
695.21	304.44
695.54	303.64
695.88	302.86
696.21	302.05
696.55	301.31
696.88	300.58
697.22	299.92
697.56	299.38
697.89	298.79
698.23	298.18
698.56	297.57
698.90	297.05
699.23	296.44
699.57	295.87
699.90	295.22
700.24	294.63
700.58	294.14
700.91	293.66
701.25	293.33
701.58	292.87
701.92	292.43
702.25	291.99
702.59	291.57
702.92	291.16
703.26	290.77
703.59	290.39
703.93	290.13
704.26	289.62
704.60	289.05
704.93	288.52
705.26	288.03
705.60	287.60
705.93	287.03
706.27	286.60
706.60	286.26
706.94	285.90
707.27	285.32
707.61	284.86
707.94	284.41
708.27	283.73
708.61	283.14
708.94	282.58
709.28	282.11
709.61	281.58
709.94	281.07
710.28	280.51
710.61	279.95
710.95	279.15
711.28	278.82
711.61	278.32
711.95	277.86
712.28	277.33
712.61	276.83
712.95	276.45
713.28	276.06
713.61	275.50
713.95	275.02
714.28	274.67
714.61	274.22
714.95	273.68
715.28	273.16
715.61	272.65
715.95	272.26
716.28	271.74
716.61	271.31
716.95	270.89
717.28	270.50
717.61	270.10
717.94	269.74
718.28	269.22
718.61	268.90
718.94	268.50
719.27	268.20
719.61	267.87
719.94	267.57
720.27	267.17
720.60	266.78
720.94	266.38
721.27	266.03
721.60	265.72
721.93	265.38
722.27	265.16
722.60	264.98
722.93	264.65
723.26	264.43
723.59	264.19
723.93	263.96
724.26	263.68
724.59	263.41
724.92	263.19
725.25	262.98
725.59	262.70
725.92	262.48
726.25	262.25
726.58	262.00
726.91	261.63
727.24	261.41
727.57	261.28
727.91	261.00
728.24	260.75
728.57	260.51
728.90	260.38
729.23	260.12
729.56	259.94
729.89	259.73
730.22	259.53
730.55	259.30
730.89	259.07
731.22	258.86
731.55	258.65
731.88	258.40
732.21	258.14
732.54	257.92
732.87	257.71
733.20	257.47
733.53	257.23
733.86	257.08
734.19	256.81
734.52	256.56
734.85	256.44
735.18	256.28
735.51	256.16
735.84	255.97
736.17	255.81
736.50	255.52
736.83	255.57
737.16	255.33
737.49	255.13
737.82	254.92
738.15	254.79
738.48	254.60
738.81	254.45
739.14	254.32
739.47	254.16
739.80	254.01
740.13	253.89
740.46	253.68
740.79	253.53
741.12	253.38
741.45	253.20
741.78	253.03
742.11	252.84
742.44	252.63
742.77	252.47
743.10	252.26
743.43	252.13
743.75	251.74
744.08	251.86
744.41	251.67
744.74	251.48
745.07	251.26
745.40	251.13
745.73	251.10
746.06	250.89
746.39	250.74
746.71	250.58
747.04	250.37
747.37	250.20
747.70	250.04
748.03	249.90
748.36	249.81
748.68	249.62
749.01	249.45
749.34	249.28
749.67	249.11
750.00	248.99
750.33	249.03
750.65	248.97
750.98	248.63
751.31	248.50
751.64	248.40
751.97	248.40
752.29	248.25
752.62	248.01
752.95	247.90
753.28	247.79
753.60	247.63
753.93	247.59
754.26	247.51
754.59	247.30
754.91	247.18
755.24	247.05
755.57	246.91
755.90	246.79
756.22	246.68
756.55	246.61
756.88	246.54
757.20	246.26
757.53	246.05
757.86	245.89
758.19	245.78
758.51	245.67
758.84	245.46
759.17	245.39
759.49	245.26
759.82	245.24
760.15	245.20
760.47	245.05
760.80	244.90
761.13	244.79
761.45	244.73
761.78	244.58
762.11	244.53
762.43	244.44
762.76	244.40
763.08	244.36
763.41	244.23
763.74	244.10
764.06	243.98
764.39	243.91
764.71	243.87
765.04	243.74
765.37	243.70
765.69	243.62
766.02	243.50
766.34	243.45
766.67	243.33
767.00	243.21
767.32	243.27
767.65	243.32
767.97	243.27
768.30	243.22
768.62	243.19
768.95	243.03
769.27	242.97
769.60	242.87
769.92	242.81
770.25	242.72
770.57	242.58
770.90	242.50
771.22	242.45
771.55	242.40
771.87	242.37
772.20	242.34
772.52	242.45
772.85	242.68
773.17	242.61
773.50	242.51
773.82	242.44
774.15	242.34
774.47	242.12
774.80	242.02
775.12	241.97
775.45	241.93
775.77	241.89
776.09	241.86
776.42	241.81
776.74	241.77
777.07	241.72
777.39	241.74
777.72	241.73
778.04	241.71
778.36	241.64
778.69	241.57
779.01	241.47
779.33	241.22
779.66	240.91
779.98	240.84
780.31	240.78
780.63	240.83
780.95	240.78
781.28	240.72
781.60	240.65
781.92	240.63
782.25	240.56
782.57	240.54
782.89	240.49
783.22	240.47
783.54	240.38
783.86	240.37
784.19	240.34
784.51	240.34
784.83	240.27
785.16	240.17
785.48	240.17
785.80	240.10
786.12	240.11
786.45	240.12
786.77	240.12
787.09	240.05
787.42	239.95
787.74	239.92
788.06	239.96
788.38	239.93
788.71	239.81
789.03	239.80
789.35	239.79
789.67	239.71
789.99	239.64
790.32	239.55
790.64	239.53
790.96	239.61
791.28	239.49
791.61	239.40
791.93	239.41
792.25	239.38
792.57	239.50
792.89	239.39
793.21	239.33
793.54	239.30
793.86	239.27
794.18	239.27
794.50	239.23
794.82	239.18
795.14	239.19
795.47	239.21
795.79	239.17
796.11	239.03
796.43	238.98
796.75	238.97
797.07	238.97
797.39	238.92
797.71	238.77
798.04	238.80
798.36	238.83
798.68	238.76
799.00	238.73
799.32	238.63
799.64	238.64
799.96	238.67
800.28	238.65
800.60	238.59
800.92	238.59
801.24	238.56
801.56	238.53
801.89	238.49
802.21	238.48
802.53	238.43
802.85	238.54
803.17	238.65
803.49	238.61
803.81	238.58
804.13	238.54
804.45	238.52
804.77	238.48
805.09	238.46
805.41	238.50
805.73	238.47
806.05	238.41
806.37	238.50
806.69	238.42
807.01	238.39
807.33	238.46
807.65	238.36
807.97	238.44
808.28	238.43
808.60	238.44
808.92	238.45
809.24	238.65
809.56	238.63
809.88	238.53
810.20	238.53
810.52	238.61
810.84	238.63
811.16	238.60
811.48	238.62
811.80	238.73
812.12	238.67
812.43	238.71
812.75	238.69
813.07	238.58
813.39	238.59
813.71	238.54
814.03	238.48
814.35	238.45
814.67	238.34
814.98	238.30
815.30	238.26
815.62	238.21
815.94	238.01
816.26	238.00
816.58	237.93
816.89	237.90
817.21	237.82
817.53	237.80
817.85	237.79
818.17	237.75
818.48	237.59
818.80	237.64
819.12	237.56
819.44	237.59
819.76	237.51
820.07	237.52
820.39	237.54
820.71	237.58
821.03	237.58
821.34	237.58
821.66	237.57
821.98	237.62
822.30	237.59
822.61	237.68
822.93	237.63
823.25	237.64
823.57	237.64
823.88	237.75
824.20	237.69
824.52	237.70
824.83	237.64
825.15	237.61
825.47	237.51
825.79	237.59
826.10	237.50
826.42	237.54
826.74	237.57
827.05	237.49
827.37	237.42
827.69	237.40
828.00	237.36
828.32	237.37
828.64	237.34
828.95	237.43
829.27	237.35
829.58	237.29
829.90	237.34
830.22	237.34
830.53	237.19
830.85	237.18
831.17	237.05
831.48	237.03
831.80	237.04
832.11	237.11
832.43	237.03
832.75	237.07
833.06	237.16
833.38	237.07
833.69	237.07
834.01	237.12
834.32	237.13
834.64	237.13
834.96	237.09
835.27	237.08
835.59	236.97
835.90	236.94
836.22	236.95
836.53	236.94
836.85	236.96
837.16	237.17
837.48	237.24
837.79	237.44
838.11	237.50
838.42	237.51
838.74	237.53
839.05	237.56
839.37	237.56
839.68	237.44
840.00	237.41
840.31	237.46
840.63	237.43
840.94	237.40
841.26	237.39
841.57	237.40
841.88	237.43
842.20	237.45
842.51	237.42
842.83	237.40
843.14	237.57
843.46	237.54
843.77	237.43
844.08	237.37
844.40	237.27
844.71	237.25
845.03	237.24
845.34	237.24
845.65	237.22
845.97	237.21
846.28	237.20
846.60	237.23
846.91	237.19
847.22	237.17
847.54	237.23
847.85	237.28
848.16	237.29
848.48	237.22
848.79	237.32
849.10	237.35
849.42	237.42
849.73	237.23
850.04	237.21
850.36	237.13
850.67	237.19
850.98	237.16
851.30	237.17
851.61	237.14
851.92	237.14
852.23	237.22
852.55	237.24
852.86	237.29
853.17	237.34
853.49	237.46
853.80	237.52
854.11	237.53
854.42	237.56
854.74	237.54
855.05	237.59
855.36	237.42
855.67	237.42
855.99	237.37
856.30	237.57
856.61	237.52
856.92	237.55
857.23	237.52
857.55	237.55
857.86	237.51
858.17	237.60
858.48	237.57
858.79	237.48
859.11	237.44
859.42	237.40
859.73	237.29
860.04	237.23
860.35	237.16
860.66	237.10
860.98	237.04
861.29	237.04
861.60	236.96
861.91	237.03
862.22	237.00
862.53	236.93
862.84	236.72
863.16	236.82
863.47	236.74
863.78	236.73
864.09	236.71
864.40	236.74
864.71	236.73
865.02	236.70
865.33	236.65
865.64	236.65
865.95	236.59
866.27	236.79
866.58	236.75
866.89	236.81
867.20	236.76
867.51	236.70
867.82	236.72
868.13	236.83
868.44	236.80
868.75	236.78
869.06	236.84
869.37	236.86
869.68	236.77
869.99	236.84
870.30	236.84
870.61	236.89
870.92	236.80
871.23	236.78
871.54	236.75
871.85	236.81
872.16	236.80
872.47	236.81
872.78	236.68
873.09	236.74
873.40	236.70
873.71	236.74
874.02	236.76
874.33	236.74
874.64	236.63
874.95	236.69
875.26	236.67
875.56	236.65
875.87	236.63
876.18	236.67
876.49	236.82
876.80	236.82
877.11	236.74
877.42	236.80
877.73	236.76
878.04	236.80
878.35	236.79
878.66	236.81
878.96	236.83
879.27	236.78
879.58	236.72
879.89	236.69
880.20	236.68
880.51	236.66
880.82	236.63
881.12	236.67
881.43	236.58
881.74	236.64
882.05	236.63
882.36	236.64
882.67	236.58
882.97	236.37
883.28	236.29
883.59	236.32
883.90	236.33
884.21	236.40
884.51	236.37
884.82	236.36
885.13	236.37
885.44	236.35
885.74	236.41
886.05	236.43
886.36	236.46
886.67	236.45
886.98	236.54
887.28	236.54
887.59	236.56
887.90	236.61
888.20	236.56
888.51	236.62
888.82	236.60
889.13	236.68
889.43	236.89
889.74	236.90
890.05	236.88
890.35	236.87
890.66	236.83
890.97	236.83
891.28	236.80
891.58	236.77
891.89	236.80
892.20	236.74
892.50	236.72
892.81	236.72
893.12	236.72
893.42	236.64
893.73	236.70
894.04	236.65
894.34	236.62
894.65	236.57
894.95	236.49
895.26	236.46
895.57	236.55
895.87	236.32
896.18	236.38
896.48	236.40
896.79	236.41
897.10	236.47
897.40	236.48
897.71	236.51
898.01	236.52
898.32	236.49
898.63	236.45
898.93	236.47
899.24	236.43
899.54	236.37
899.85	236.34
900.15	236.33
900.46	236.31
900.76	236.33
901.07	236.30
901.38	236.35
901.68	236.40
901.99	236.27
902.29	236.33
902.60	236.29
902.90	236.26
903.21	236.19
903.51	236.10
903.82	236.15
904.12	236.10
904.43	236.12
904.73	236.09
905.03	236.10
905.34	236.27
905.64	236.28
905.95	236.30
906.25	236.23
906.56	236.27
906.86	236.30
907.17	236.29
907.47	236.39
907.77	236.36
908.08	236.34
908.38	236.38
908.69	236.35
908.99	236.38
909.30	236.37
909.60	236.42
909.90	236.42
910.21	236.34
910.51	236.34
910.81	236.29
911.12	236.35
911.42	236.35
911.73	236.09
912.03	236.08
912.33	236.11
912.64	236.16
912.94	236.13
913.24	236.13
913.55	236.11
913.85	236.10
914.15	236.15
914.46	236.15
914.76	236.10
915.06	236.08
915.37	236.06
915.67	236.09
915.97	236.05
916.27	236.03
916.58	236.05
916.88	236.08
917.18	236.11
917.49	236.22
917.79	236.25
918.09	236.37
918.39	236.43
918.70	236.45
919.00	236.46
919.30	236.47
919.60	236.48
919.91	236.46
920.21	236.45
920.51	236.38
920.81	236.35
921.12	236.39
921.42	236.43
921.72	236.43
922.02	236.42
922.32	236.48
922.63	236.53
922.93	236.62
923.23	236.57
923.53	236.53
923.83	236.39
924.13	236.41
924.44	236.40
924.74	236.41
925.04	236.50
925.34	236.55
925.64	236.47
925.94	236.43
926.24	236.56
926.55	236.59
926.85	236.67
927.15	236.64
927.45	236.64
927.75	236.63
928.05	236.62
928.35	236.65
928.65	236.70
928.95	236.67
929.26	236.60
929.56	236.67
929.86	236.72
930.16	236.71
930.46	236.71
930.76	236.69
931.06	236.59
931.36	236.45
931.66	236.46
931.96	236.48
932.26	236.53
932.56	236.42
932.86	236.40
933.16	236.41
933.46	236.48
933.76	236.40
934.06	236.46
934.36	236.54
934.66	236.50
934.96	236.40
935.26	236.43
935.56	236.45
935.86	236.42
936.16	236.41
936.46	236.45
936.76	236.42
937.06	236.43
937.36	236.51
937.66	236.55
937.96	236.49
938.26	236.50
938.56	236.48
938.86	236.51
939.16	236.57
939.46	236.56
939.76	236.51
940.06	236.57
940.35	236.50
940.65	236.43
940.95	236.41
941.25	236.36
941.55	236.39
941.85	236.37
942.15	236.41
942.45	236.45
942.75	236.44
943.04	236.40
943.34	236.43
943.64	236.36
943.94	236.35
944.24	236.39
944.54	236.38
944.84	236.35
945.13	236.37
945.43	236.31
945.73	236.31
946.03	236.28
946.33	236.24
946.62	236.22
946.92	236.17
947.22	236.23
947.52	236.28
947.82	236.22
948.11	236.19
948.41	236.13
948.71	236.08
949.01	236.02
949.31	235.96
949.60	235.90
949.90	235.89
950.20	235.86
950.50	235.80
950.79	235.79
951.09	235.79
951.39	235.75
951.69	235.70
951.98	235.69
952.28	235.74
952.58	235.71
952.87	235.75
953.17	235.78
953.47	235.73
953.76	235.73
954.06	235.71
954.36	235.70
954.66	235.71
954.95	235.73
955.25	235.80
955.55	235.88
955.84	235.87
956.14	235.97
956.44	235.96
956.73	236.01
957.03	236.07
957.32	236.10
957.62	236.10
957.92	236.12
958.21	236.11
958.51	236.33
958.81	236.45
959.10	236.49
959.40	236.57
959.69	236.61
959.99	236.63
960.29	236.63
960.58	236.67
960.88	236.75
961.17	236.74
961.47	236.76
961.76	236.75
962.06	236.80
962.36	236.73
962.65	236.82
962.95	236.78
963.24	236.71
963.54	236.72
963.83	236.71
964.13	236.75
964.42	236.73
964.72	236.59
965.01	236.52
965.31	236.43
965.60	236.38
965.90	236.49
966.19	236.45
966.49	236.54
966.78	236.53
967.08	236.60
967.37	236.61
967.67	236.52
967.96	236.62
968.26	236.58
968.55	236.65
968.85	236.65
969.14	236.63
969.43	236.64
969.73	236.64
970.02	236.63
970.32	236.59
970.61	236.60
970.91	236.50
971.20	236.50
971.49	236.52
971.79	236.55
972.08	236.45
972.38	236.49
972.67	236.43
972.96	236.42
973.26	236.25
973.55	236.36
973.85	236.39
974.14	236.36
974.43	236.37
974.73	236.33
975.02	236.31
975.31	236.39
975.61	236.39
975.90	236.42
976.19	236.47
976.49	236.50
976.78	236.47
977.07	236.52
977.37	236.57
977.66	236.58
977.95	236.52
978.24	236.51
978.54	236.57
978.83	236.54
979.12	236.59
979.42	236.63
979.71	236.52
980.00	236.47
980.29	236.48
980.59	236.47
980.88	236.46
981.17	236.46
981.46	236.40
981.76	236.42
982.05	236.51
982.34	236.47
982.63	236.46
982.93	236.46
983.22	236.51
983.51	236.49
983.80	236.56
984.09	236.56
984.39	236.56
984.68	236.47
984.97	236.47
985.26	236.39
985.55	236.43
985.85	236.39
986.14	236.45
986.43	236.45
986.72	236.43
987.01	236.38
987.30	236.32
987.59	236.28
987.89	236.25
988.18	236.07
988.47	236.04
988.76	236.00
989.05	236.02
989.34	235.99
989.63	236.06
989.92	235.98
990.22	236.00
990.51	235.95
990.80	235.94
991.09	236.01
991.38	236.07
991.67	236.04
991.96	236.07
992.25	236.06
992.54	236.02
992.83	236.04
993.12	236.08
993.41	236.15
993.70	236.23
993.99	236.32
994.28	236.40
994.58	236.43
994.87	236.41
995.16	236.40
995.45	236.32
995.74	236.22
996.03	236.30
996.32	236.27
996.61	236.37
996.90	236.41
997.19	236.33
997.48	236.29
997.77	236.29
998.06	236.33
998.34	236.35
998.63	236.35
998.92	236.34
999.21	236.37
999.50	236.36
999.79	236.34
1000.08	236.32
1000.37	236.29
1000.66	236.28
1000.95	236.39
1001.24	236.35
1001.53	236.43
1001.82	236.42
1002.11	236.33
1002.40	236.39
1002.68	236.45
1002.97	236.54
1003.26	236.56
1003.55	236.57
1003.84	236.56
1004.13	236.59
1004.42	236.54
1004.71	236.55
1004.99	236.53
1005.28	236.55
1005.57	236.54
1005.86	236.50
1006.15	236.46
1006.44	236.43
1006.72	236.50
1007.01	236.46
1007.30	236.53
1007.59	236.48
1007.88	236.52
1008.17	236.56
1008.45	236.49
1008.74	236.38
1009.03	236.28
1009.32	236.29
1009.60	236.26
1009.89	236.22
1010.18	236.16
1010.47	236.21
1010.76	236.20
1011.04	236.25
1011.33	236.24
1011.62	236.22
1011.91	236.24
1012.19	236.31
1012.48	236.41
1012.77	236.35
1013.05	236.50
1013.34	236.51
1013.63	236.55
1013.92	236.56
1014.20	236.52
1014.49	236.53
1014.78	236.58
1015.06	236.56
1015.35	236.54
1015.64	236.56
1015.92	236.62
1016.21	236.63
1016.50	236.54
1016.78	236.54
1017.07	236.51
1017.36	236.51
1017.64	236.54
1017.93	236.53
1018.22	236.49
1018.50	236.43
1018.79	236.43
1019.08	236.27
1019.36	236.20
1019.65	236.17
1019.93	236.18
1020.22	236.24
1020.51	236.38
1020.79	236.32
1021.08	236.63
1021.36	235.97
1021.65	236.47
1021.94	236.03
1022.22	235.77
1022.51	236.33
1022.79	237.07
1023.08	236.50
1023.36	239.17
1023.65	235.43
>>>>>End Processed Spectral Data<<<<<
